,Fp1 - F7,F7 - T3,T3 - T5,T5 - O1,Fp2 - F8,F8 - T4,T4 - T6,T6 - O2,Fp1 - F3,F3 - C3,C3 - P3,P3 - O1,Fp2 - F4,F4 - C4,C4 - P4,P4 - O2,Fz - Cz,Cz - Pz
0,-250.30489448536497,57.07770129990242,153.94125569070815,71.45983899979929,-5.083849483618514,17.549234866348375,66.0804061652488,53.14421200058897,3.191132066428165,-8.883626563744645,25.562066807625232,53.278671475690054,47.807675347082395,35.84743443179646,41.32122429045116,50.35992803035901,42.20985273516036,22.614836067372963
1,-245.455322542965,61.1038462848641,152.8115781552271,63.477835107857736,-15.027893546778545,12.444323767348925,67.61448951189406,57.506398738212624,6.009776682814684,-8.887441347925034,23.68202282446955,50.51426606806963,44.8217794669133,33.56927704278845,40.74593811026346,51.943331653029865,45.979924014298916,28.69191316004424
2,-246.40240909636273,57.985443650888236,148.59221455195555,59.253072799306835,-19.266287593109272,8.26220293097963,64.97875682823167,57.83443378363561,7.918537513170034,-9.17030460204655,18.936479380928162,43.029034652201354,38.09482484090284,29.107509447971516,38.12219637958983,52.6919710505885,55.667899071730034,53.30067016071789
3,-233.85162681827492,65.64013355982347,149.02922501225646,53.170553231003346,-25.13259855992824,9.159346238947341,71.73575248760191,64.16846779365495,10.396029947360015,-8.182323777288747,21.571530743055106,46.77941034767116,40.87990118377812,31.26542210306996,41.253387980216914,54.6319725907022,48.895258082958925,30.15585562251341
4,-240.4323001229287,48.94493587769363,141.63116816128598,66.73162776769216,-3.280111165810283,17.691719638218125,61.20630619485742,47.14110037614543,-0.40680322846826406,-12.002416086048685,19.239067103144432,44.01279837406217,39.5918665793983,31.819846839599194,41.138984157032446,51.301274158634875,41.11975159620321,17.08844208542591
5,-239.37275630880492,56.624297409711545,144.65606306411962,58.903239818246284,-14.954426982735441,12.512960080225835,63.88690679273189,51.52417746706669,1.7652458663222022,-10.661254078051671,21.211549093100572,45.0327763666988,37.95805194310662,28.57177379441961,39.21786289191907,54.539524380619284,54.80747818712981,46.46186696469361
6,-237.5909649564393,58.305450214961844,144.4057692717582,55.62055924614734,-19.487845089589165,9.907880587023051,64.30332654313426,52.87741915068945,1.516778782990255,-12.49473240155669,19.811590141803233,44.99503711986698,37.870591386800484,26.778272049709987,35.93359705849354,50.999750913583554,51.198637097643626,42.012025796670606
7,-234.75972069808444,57.21085139482492,143.37133784290134,58.528271799492,-12.174846464364457,17.86159584522964,67.75183536771657,50.055237246403074,-3.8727572064622033,-14.672976528413278,23.04896978912275,50.73416847036324,42.35818510336002,29.89696555222581,39.679248313114876,53.44592605883243,44.04699566570417,16.460988763273424
8,-240.7893872680242,49.217253786441695,140.87845578123782,66.33704788858861,-0.1783077036809033,22.42795990337342,60.24434497162126,36.845152279855284,-13.71213014987929,-18.559413955118153,21.531087013546856,48.326236380790675,39.016002153483306,26.212526579232982,35.4705687546334,50.828377098223136,49.61248248968214,37.153313070426414
9,-251.01144716205886,54.532393297647765,147.35038505250856,61.92767663067405,-13.292470375401475,11.97298641752935,59.60966907949345,43.17052514976731,-7.762595437616543,-17.107992182907935,19.244372757901495,44.68169700846868,35.17369998802782,22.048619569733503,31.168786833984495,48.482786360169165,53.50065926908416,51.59350324264584
10,-243.46002150127947,49.987956970549334,140.667291912954,60.34528853687731,-11.532596732591436,12.31820972357516,58.173176233093876,42.657183447311,-7.041020229297592,-17.546442703871783,16.689054863617365,41.88380544102073,34.22873752331142,23.38208183973804,33.5767414539283,48.18873604715005,43.13125196837129,23.644564350649674
11,-245.77375981609327,64.1784491948834,153.1141419556173,58.817240045593955,-19.16554366478801,12.607211735103695,67.14939142934008,50.07312101151063,-5.542076224616002,-15.272892346123111,25.54557866310545,53.22027292032151,40.56564162281285,24.45930526660379,35.64933946495112,54.80460990150933,51.10849538687927,28.51521466054865
12,-239.2194420566815,72.99784839552022,154.03827817768342,47.242260762640846,-34.011090288794755,7.2413842592046835,73.49235149996083,60.040285037786404,0.8123925665963593,-12.920518349784052,26.22712924514632,52.44393184831486,37.62814192185685,20.858564262042293,34.785808688187785,59.87042732871193,64.65858415744498,52.7744868521269
13,-248.794512847108,46.098933938244386,140.55055590199598,64.80235492635546,-5.381924241865871,16.514228196069396,59.861547752022204,44.041907557054394,-4.430221525060394,-14.675498825026875,17.62343098908608,39.65647447787877,30.022933703722543,20.870646033260893,36.75169040408765,57.69679252146937,55.19887868831635,34.13704531660244
14,-238.64045377381683,65.11478224459374,148.23498619569915,50.51154925077951,-25.532649694882345,13.358463222640165,75.46172321662351,61.14626988450513,2.6213304457474527,-12.287590438833115,24.49450542932305,50.19012429941388,37.69068278456873,24.710083341776937,41.46046049462925,64.22976935936632,56.81651109788704,23.230352056897257
15,-246.5033545866127,55.51927570571604,144.12788312591007,55.725677365995026,-17.459526197385728,15.113926016781548,69.99788271334685,54.99390767594279,-0.15775687124989873,-14.339417552967976,19.571169133579485,43.38842557282608,32.32887631430256,21.559646912378966,39.36749827457944,65.11327927144072,67.48383975779932,50.704503843591446
16,-242.6496521257276,65.18067454822892,149.58551788184437,51.14892682638465,-25.437816898231087,14.149084105593598,77.83286000084435,65.05486935201526,6.860940169652092,-9.847853464040854,23.611156189933126,46.86315367721594,34.7559734672835,24.34059796515572,43.994307853436936,70.50342292662208,70.61080490581186,49.286266316363424
17,-235.70906783299978,59.72029264113434,144.0452216155402,54.72554243431318,-15.718278960892288,21.13858999413845,77.9710549116934,60.8187562951457,1.9651063378683482,-13.627973306403803,21.877235172519075,47.90410309387196,38.053707986819354,28.292637305284895,46.9375903794852,69.50390265804003,59.598015625121334,21.707647704646742
18,-249.72279297217398,54.8318719483481,144.43980447868194,56.44276054341736,-14.685570007936537,21.25406484267316,77.28273860511418,58.870220458146,-1.6657074398389697,-18.127266398664897,18.378223619303565,46.453139806881715,37.544013275675724,26.65543198365117,43.89327385356209,68.17520598982179,65.52974410089568,39.783776195127935
19,-239.11910420012322,59.66401029196491,140.71234760534335,45.12080594628352,-26.58012182852124,16.03409618346541,80.18471054516765,66.17691472349583,5.260419787894716,-15.21744244701682,15.855300681691602,40.82374818932696,33.70626653353259,27.017840836719078,45.941386443824655,69.46333053464846,69.19650581053469,51.34472572608811
20,-238.61952881659698,50.30426589594008,134.2807361742446,50.64248983304024,-13.864666758399894,24.675216303379866,79.70150539024263,60.185320225597216,-0.9343069050156898,-19.562768563118244,13.388495282631316,40.35942293201301,35.170632794732064,29.61770772756403,48.273769854484215,68.30000394386809,58.210131405167004,24.02223436451449
21,-226.5941379338229,67.64984123340805,140.02120404440652,35.986006749268924,-34.887460423604956,17.833949038842867,90.36957560108499,74.71697189779692,6.675795513055108,-16.270048255646397,19.110961435467726,48.11971291589683,39.6191490593239,29.251254174462517,47.03323540589109,69.74698419252468,61.96838577875953,28.277888553568083
22,-231.59585681719523,60.27510490302969,136.5998511698428,38.98801230511653,-32.53939680917097,11.736090386878983,78.19289833869358,66.05884403835897,5.889647309733266,-14.75498789266936,15.69780346419878,39.44750507469266,30.357571957761106,21.967104351834756,41.0788163429472,66.88749248759538,69.47033850617787,53.89918037887695
23,-230.41058984778138,46.866014653044836,127.11410033478188,45.26639570558765,-19.278174632183703,16.59529189721358,72.15906128533268,58.504232235498165,2.8910932635277065,-16.275870376579146,11.46309508552877,33.76543112298723,26.80115395456243,21.380079922821007,41.52908144943742,65.12381306972586,60.60992018062358,32.86840208257801
24,-220.56148642834847,69.67930111828046,139.4302537783458,33.4162709579338,-39.017821775867745,13.920574589506996,88.97726220217876,76.06872479254105,8.722986721748505,-15.195567857364288,19.071986381820338,46.648744849560416,35.899916301017456,24.63899374929942,45.35072465220911,72.0744904829088,62.760359706340616,20.33109141652888
25,-230.60995211681677,59.42659724055869,133.77204577992967,34.96961282162162,-35.199372366968326,12.730653966313316,81.84719177653433,68.37810148894361,4.119801077432196,-19.048271871751613,12.449045211906023,38.257029151090485,29.391092577155504,20.570135123169482,41.246000432161026,69.09973255370258,69.27773000616232,45.68688464154635
26,-225.09465049620505,53.51905059313463,124.08140871490517,27.89258762343393,-39.04126514428786,11.17184016435252,83.840905623141,74.13183312982143,9.051790584372947,-20.431750212334666,5.2391933541016025,31.384582431537446,27.378318654559106,21.92101515749925,41.719871077307815,66.73334877637349,64.8917335712676,40.22979659402236
27,-220.40802039728973,61.43239251355736,130.3969397959592,30.386452716287728,-36.54905010816904,16.82623663759655,89.33767278696492,74.55484023930916,6.0727436851033065,-19.825291314937047,12.848326432508646,42.175953082564,35.971254434102136,27.176115398958995,45.041660561442065,66.68457346384913,55.87585098123324,16.685799216735024
28,-218.5697292652976,67.06152252181316,134.4916908872651,28.600111897767324,-42.60147083732772,12.399703875685747,90.43155418068612,79.49297564089528,10.575440745438687,-17.475745819329095,14.573428771540126,44.239607462900835,36.647754034902704,24.7708938605313,41.360701524184925,66.60503654514193,64.31413180925323,36.7265068337852
29,-223.45208568717788,68.67449402026479,136.83876246244526,26.588469212900996,-48.690504549579174,6.791995903806242,89.352700455618,83.00637682931769,15.180033985528727,-15.687187761394915,12.281541339401771,39.80730262615012,32.92095662706809,22.705138212853875,39.99226321116508,66.00924854010516,67.62957302987442,47.874903665255005
30,-220.4012772858586,77.91207907299967,144.05820039416474,25.63079552982356,-53.780144407144,6.528656304815233,96.55469787927683,91.80545302619281,19.828059240396076,-13.94711109572468,15.969229372544284,46.66397842797443,39.81150686365359,27.350319158072573,42.90838589455593,65.96128722941377,58.15499974837567,21.67930104353385
31,-227.31530393205892,74.24851965494774,145.67410747938408,31.945162162178285,-47.51371585442872,8.398531705820751,94.2713378125644,88.63497793196153,18.1178425657742,-13.804185808049752,17.44529062145766,48.16305333196777,39.58484764833996,25.458967158699792,42.191012215983946,68.74909794025274,62.90691890375777,25.237833485109014
32,-232.20624471183856,69.65819436616219,142.49257456551453,30.749048192630294,-48.46143959851312,5.686028650574266,90.71797715421802,87.26765658024765,19.656654420542072,-12.680366677540633,14.701481335639427,42.30525587976399,34.182200869200436,21.954954126563678,39.16780261422124,67.14708241230856,69.47178470685027,47.6946563186374
33,-228.10919010738488,61.31717087484939,135.4013455811748,34.48717635540592,-38.91428115952063,10.260804690504989,87.61454925909754,82.45747317322963,17.800783639441995,-13.144030100735064,12.757758265050557,39.706258707996554,33.563539828075726,23.51213039234569,40.23378315510722,64.4009096688492,59.8922837655495,28.698149136229112
34,-230.08410610421004,64.20096159284194,138.954843934888,35.77380306148524,-38.33916157518244,12.848153367384253,91.6678501872736,85.10692671743314,18.201772757887383,-12.710941382222098,15.30908737989637,43.74309026137182,37.23642984983878,26.328408520816907,42.788199177437775,66.01471725589762,57.821121267385784,20.22104582570561
35,-227.70351132050112,72.3614076653518,143.41564029703176,31.817599649858266,-43.97498692399414,14.394777492270427,100.24878126634461,93.54122802805925,22.29158556049956,-10.733065061281554,18.370996521962166,47.584114875597436,39.84612499119063,27.28750312316296,43.8478247430802,70.81778869945195,72.05628396224678,49.46017559236398
36,-218.18722629382853,77.75675202286997,142.4293576612945,23.77556809480781,-54.76139310398333,7.996311409072444,102.33787357351828,101.87866398667089,30.69185127993303,-7.164820859516034,16.687547096073832,43.812001831551505,37.46982481152816,27.500270574313763,45.29849092250446,71.12343250624409,69.23891939436722,42.365112718344264
37,-225.5106801041351,63.51948982649891,138.13725215189206,37.160740466992415,-37.72710450309392,10.908703885932509,90.9902706672016,89.68627928528142,25.40978370621074,-9.47035453553853,12.398574290438097,39.07349940941276,35.68506594298319,28.147935144531495,45.19341260162763,67.14059674122677,57.6021568489563,18.946191198005163
38,-225.33037774246702,59.6615744725129,136.2338407724495,41.3538807395282,-30.726329363170823,14.401080296177913,89.30947218495821,86.49261341418831,23.95785631272936,-9.610205865384321,12.099785077395781,39.0623271936603,36.851064257739374,29.125689384631727,43.893089224722694,65.4053019589518,62.43855122378589,37.30300011183083
39,-229.53068151243238,72.97581191157069,146.13982921342898,33.87165305392933,-46.13073832246626,8.897523142216404,97.10607026733554,96.42186447903073,27.775745436492574,-8.957874258028173,14.886782787507052,42.81664493696711,37.3571508998214,26.52734630835478,42.53862451947713,68.39008943918573,69.67117759128821,48.19820099415844
40,-216.79423840185487,80.21077396568545,146.1955060749047,27.218186770124657,-53.50393673390281,7.7551088893262,102.54362884968899,102.06844379357719,28.648518373278296,-10.716649478833377,15.882160018302825,47.77430114159551,42.60906836245181,29.27411775330337,43.34944919261524,66.3197135529733,57.91502410509992,18.55050454536909
41,-218.71103876125463,68.24985450316927,136.34691158696043,27.376567488397693,-49.288816330639655,6.018175866968006,94.19189571049674,94.2121875932597,24.74633717245215,-14.358445391004379,9.100478053393289,40.007166265423315,37.46318212902905,26.24255423451237,39.289387565452,60.82122293343739,54.56195428735205,20.935936746530377
42,-226.62128648539692,63.50340980083763,134.80347338074347,28.13510484132487,-48.84723175189393,4.11173676627046,90.87694701932077,91.98838046225754,24.160106907800103,-15.387337922196942,5.871465278865157,35.33564121399611,33.15513366531035,22.689221214743398,36.08501485573156,59.977731304690586,61.71918288112172,41.814261085485796
43,-215.08585930929104,71.3593716614738,136.42713866034302,23.813947610065963,-53.210008944835074,5.319448640749755,96.68031540243425,97.30817844140105,26.98529419083993,-12.514693217650326,10.824448709264457,40.82168299262356,37.00644177637265,25.490086447786936,39.380412686976314,61.83670909959622,55.89275683113311,22.183901788411283
44,-207.91441383674626,74.21606324159605,135.55435455581258,20.460840399310147,-56.8207078891245,3.7686253901370876,98.15946496869206,100.97068088595734,30.98353404556693,-9.815418312568761,11.716091939369415,40.82193258290267,37.76121134372438,27.872864356257594,42.452647816638994,63.25423373374046,53.105085735583486,13.333176436251591
45,-209.15703469994597,73.77798455433899,136.24278890957157,23.62649606911044,-51.29737922724969,8.198178239886348,97.9607836234881,97.50676772904349,29.398371854767944,-7.340251149836002,14.71556207297646,40.469352329444014,35.170851209886266,26.88433255832875,44.699788394415656,69.04618824317005,65.64007376923799,37.45832914523501
46,-209.4284157538324,62.18194360991276,127.86069297644801,28.12635660666402,-40.88335221183741,11.620530523430265,91.93868559060219,90.04928613105702,25.957577512152515,-9.834080939205835,8.98006057183084,33.472695452065906,31.699374150581143,27.16877671433185,44.21012917641326,64.62488645720734,58.641782369806236,30.402793525309168
47,-207.76485601158817,64.43672754196565,129.36635597697173,26.32978037985201,-46.28869668447341,6.499333780982159,91.42757637263144,93.56116283203836,28.90807234199032,-9.747350804291639,8.583654163808886,34.986257168000535,33.75723122112791,27.531464423756017,43.16333398908764,61.784797481251665,48.3468672464262,5.230447448141226
48,-205.9522786425649,69.34442310190417,129.36454041555933,17.838596623848716,-56.35690297557239,3.8068033904815017,96.43982089572123,99.16627490610097,30.11200330895085,-11.397617307487874,7.621494778817894,35.134971773630774,33.02675408271809,25.053428453907554,40.56516985906565,62.42848349284029,56.43980021747304,24.406869419258857
49,-212.73337568125592,53.799439381684465,118.72481402619164,20.49182838527054,-48.36700175449931,4.439905756217316,88.20013690190224,90.1432071103656,24.788272679283473,-16.51739696235826,-0.7937489597884578,25.66478380772092,26.393537000723537,21.37179383834215,37.572006068263725,59.961019043334716,57.075139866442484,30.520876988314104
50,-205.89839131746328,56.28256456014821,118.44951157319005,19.267892962236974,-49.081069050684626,4.561383829751663,88.14577663861034,88.88455933641887,22.880569793246487,-17.21000537812774,0.9285207728337644,29.14536794889981,30.04621598824933,24.13481931959491,38.64697894499939,57.01202104246023,45.478244212789896,5.669493377991159
51,-210.88711198130733,57.882069089052735,122.82059749427638,23.156418856159817,-45.83528201825869,8.29103840291643,91.88391388200519,90.79278534175852,22.54602368873288,-17.62425708195148,2.8840692968181534,33.443283956532554,34.463270029333295,26.989230815974715,40.51193159017387,59.87670437510464,51.190337708804535,15.422166802541918
52,-209.78994910110413,66.4651497155461,130.87565240450155,25.498740280661284,-46.36511887697961,9.599126101141076,94.82993851841002,92.55565640117612,23.62194864196035,-13.880068283264759,10.005790952695849,40.478364954500854,38.081258181121704,27.44383587863543,40.687997052146386,63.510474901623695,62.75903148227911,39.086227845524355
53,-203.64966359120007,62.874615479058896,127.61593696281511,29.100831093480885,-40.356010112535074,10.121212990243484,89.34874695057387,87.50811651177315,23.256830000976148,-11.907282050338686,10.222687972676104,38.68045881607991,36.86398211722087,27.836212127490498,40.75342938966586,60.348424519879764,54.0446286502074,23.08242256764893
54,-206.01758582861171,69.55471725365695,137.32141761975302,35.86531626499464,-37.158364396474845,12.798019528922902,92.96811139101727,90.57758701306096,24.92319107075552,-9.55205458941136,15.400451382261599,45.210092934651485,41.34883295537016,29.891843389105482,43.44455666931837,64.56777987778568,54.90307869839227,14.535001302328622
55,-201.098947609839,68.49435805966789,134.74185850590825,35.74548218088299,-35.64200276533768,12.647934319117187,90.65664425395937,89.12074723432642,26.39551563536262,-6.8712684679155815,16.42310567626231,44.307115354134396,40.069225615472085,28.188989623239724,40.14577475990981,62.40716858706012,62.70555535594417,41.26585784433535
56,-193.8658438470563,69.31210405678154,132.24749523195524,32.64255845022212,-38.61765540982224,9.906981185887295,88.96952969034471,89.28620586357913,27.95644543210913,-5.232212849855878,17.333648719081204,44.55307650443023,39.804720782033,27.20686644295171,38.190894856865235,59.250345730999456,57.64445423596036,33.14575965835926
57,-201.99998098606753,69.3763343517326,138.62389907367506,42.04291889412126,-29.515666331050912,16.15219518726852,90.81535710355244,86.95546852652592,24.248899365928214,-6.168950195162129,21.214200006738274,51.171037283082754,45.45579120747443,30.783638634838834,41.0486417042777,60.14348648017159,49.874024705763354,9.372532867853819
58,-195.11263334039452,68.82796392510701,133.95067915255987,36.63460236584619,-34.55863710502925,11.757026509599338,88.52725853353613,88.08020878357271,27.286580739637326,-4.796609555748924,19.126835542087694,47.37541889672723,42.44202186264026,28.541862873910844,38.32880764998251,58.83230960245599,56.33501030017002,29.89407051920695
59,-196.41275692209754,67.59503358838653,133.2386476767135,36.61167809190333,-34.57285226821739,10.953990324753253,87.08913148809691,87.02427052083195,27.369816745201856,-3.869276512955901,19.816949136225965,46.81461037408385,40.41104510657855,25.864075671437462,36.54483227880827,59.525122782776684,60.66186807320034,38.55573454243542
60,-185.9977342352131,76.85525027311908,138.35406059286052,35.767936539789524,-38.31622747641187,9.0599234677164,88.01769762500146,88.13046520521944,27.42418849119121,-2.5730373855066757,24.475678315471,53.23859247273731,45.27264254697921,28.384008200005763,38.18771734442119,58.89984091367039,50.89976521175582,12.136788021023817
61,-188.71041072383815,84.09324935170444,144.5776860187428,34.730386544579574,-41.02411130566128,11.533673637135777,93.2223310238287,89.28914958792915,24.271975537163957,-4.1225078532812445,27.35734925698215,57.161008815390026,46.81321795024937,28.64232499347756,39.95235804226759,62.86733904465471,56.47363677384728,19.525939812418944
62,-191.56001416255154,68.9268637861972,132.96812665066858,37.10106085675725,-32.74980126280111,12.434478966361501,86.70084334411902,85.68932781309795,27.219365592668375,-2.6038882822872558,20.642205754648415,46.32832061461116,40.097139860887175,27.01553322298962,38.17097874636978,60.44646434947531,62.39281853567653,43.87965919699201
63,-185.5763400034277,71.91143206609114,135.05105859931706,39.88537711194712,-29.297363008888464,15.59957286152371,89.01567736500103,87.53754747856102,29.40305647456834,0.29684668502865824,24.09630303645933,50.26610856961375,44.84871156199108,32.53402282214359,42.91471801907347,61.140892744795565,54.90695798782392,24.818715586068627
64,-181.33896049259232,72.06275022671849,130.79080936999134,32.262584770353925,-36.67330783432765,12.287882720740184,90.27316082562353,90.29269711077085,30.336667082284542,-1.3222526811874364,21.257332047693474,47.46676055772587,42.65276283407159,31.62992860280414,43.81708279378944,62.24997107552576,51.81819819076487,13.135683233640371
65,-188.956812278415,64.99805682905628,126.93188033384253,33.31696091602636,-33.52930058676148,12.631006597775638,86.35239617646302,85.17463909170861,27.07826508587355,-3.4027085155797314,17.779263610525422,42.18511896307328,37.649856270079226,28.322622482035065,42.00572532497939,63.45541685127627,61.72272259369625,38.04974700010106
66,-183.0550297050309,62.144945264871474,121.47787035388815,31.553946369424562,-30.846911821830513,15.259388966498685,84.79726844052665,80.14041334181846,22.484730896655705,-5.330630591637054,17.44518513714085,41.96119255754434,37.702772710282346,28.704820929252886,40.94235113779906,59.3336636524087,55.54689830367432,31.77426377242293
67,-175.59373318627684,64.72685369684146,118.20157142611423,21.817606809144305,-43.56788656728858,6.692279791565908,84.78319208632779,85.28186191698728,25.40686282956866,-7.440933858103507,14.089065969194825,41.2464964468682,38.65375958303586,28.493666780492294,39.105634388063834,55.27653939003258,43.98854726647247,5.674126369507116
68,-187.7702127528197,61.44160312576073,120.19684140304979,25.464960836556426,-40.29103508053955,8.644608220260226,84.78875267291966,83.3221068001094,22.498104066593168,-9.829471937800909,12.886557398652052,40.586354206690736,37.48630862384103,26.748471645513135,38.26539897742752,58.01595576466514,53.55233441145812,24.92715161765793
69,-184.8748807631976,59.271183338359826,116.4384816204896,24.55687122382134,-37.340967285640914,11.758198720753812,83.95672326516952,78.99729862233688,18.674441119552743,-11.0863221950748,12.47964766952636,39.40689881169396,36.553802696048145,26.801209816849322,37.41652530243806,55.53445089311389,54.017964589195884,34.48288434744945
70,-180.99357867354846,56.75627335416541,111.28093581427026,20.033110548043826,-40.221229169814755,10.338254078457577,83.6720226338836,78.95579211384864,17.279735949157885,-14.737421876717287,7.5727016974130645,35.34252765683976,34.76186956883566,27.27293568805679,38.557965376966855,53.35148478019916,41.935964704125475,6.38253251454763
71,-185.36776852044284,48.810222607604,107.16105306392113,23.37228666499072,-35.0963283567949,10.405195911993054,79.53477084507472,76.04887121734257,16.923741077496725,-16.10836944408579,3.4047423375234387,31.112242058489915,33.14458960324947,27.14269467651653,37.41630147083815,51.34879542643119,41.86700826660787,10.694629809786202
72,-185.9079021174554,45.275550231866575,104.58136111988397,25.931756550747938,-27.923961820105312,17.273286191705232,82.33300662830251,75.92408173054463,17.191401173400376,-14.854965244319981,3.593138916499037,29.765422136235696,32.51429471372568,28.491597789124185,39.34000213848578,54.213251880113575,51.73803762145644,35.02531311672292
73,-176.6320706116389,53.02719909123093,106.14484290025482,20.00687341131135,-34.66562560790069,17.45599071720844,89.5457710569008,83.96337897673396,21.66310828310425,-13.144075344106197,4.860948515750251,31.250855214000264,34.526243447075146,32.34983927510581,45.11951796179033,57.863935125623215,45.95051368233008,13.659244997925132
74,-181.43739930198817,45.22292112156872,105.22763561901117,29.958976965251352,-23.301756842994227,18.894469540390446,81.39791734528485,75.57874048920957,18.811414491235897,-12.80165751889168,4.3723882081227945,29.610647345425157,33.33366384835143,31.96361731664231,44.847986169176814,56.745687919844755,42.00947651556262,4.425077854488261
75,-182.03530255386994,57.23125123201522,113.66884775555982,23.542789426647566,-38.22296484772007,9.582820961581255,83.0505304351556,82.6894432921947,25.35585863759788,-7.388311307572431,9.587109221169303,32.79396995052887,32.084956400349895,27.227434479608597,40.86580677318398,58.87669345145271,55.83864113289078,34.71232736742047
76,-180.59670844095663,49.49599935270654,107.16021102153691,25.597761685146693,-31.755244550767127,11.567011667341257,78.17814605020642,76.1007228560057,21.6072218362245,-9.065345010076104,7.282144572598847,29.613745104919268,29.51247488284643,25.51983013815879,38.82179409448887,55.7002175313131,51.706189939297985,29.79897743881644
77,-179.3847544948812,55.26964709490421,115.62860995353434,33.393958287609706,-26.99177973062383,13.280057467586674,77.90733325146101,74.60518681094318,20.141261087883745,-7.9020119017509645,12.786891191010518,37.31989370920875,35.08812934772885,27.675803104190692,40.16902279292615,56.45823332476466,45.03953250762958,7.239852214056073
78,-174.85011380568173,60.22333091046154,116.75571654216347,29.12859652055141,-32.94279451511468,9.871162658173478,77.35845002577061,75.0481763350565,21.153208005374925,-5.6776906605228605,15.420853972421265,38.43536512619814,33.989495918194784,25.252887489499376,37.79660273680262,56.83370013701544,53.594601538135315,29.589671599762156
79,-175.82964764694464,52.42479263177219,113.22242093889702,37.00340007486393,-20.420180213577673,15.054522670668913,72.64734969719254,68.49184615097302,19.69516234626229,-3.6351989867130805,15.956065126800816,36.811791226243884,33.18538321085637,25.898208595521485,37.32789615531042,55.08774426317034,55.95601698691973,42.22110010625586
80,-165.8615623368361,54.508416938056996,113.85616669224018,41.605953972694714,-12.22642670056718,22.120809267014156,74.60658538096017,65.66683644346676,16.122248980046013,-3.7067888943456353,20.67646229630837,44.322736491655164,40.55071163542898,31.58176769756835,40.77205989057839,53.9272773077993,44.58633466341189,14.766122214202218
81,-171.40378910980414,62.36984853588555,122.12820865345172,39.831600513707244,-20.95396715853077,17.07894279198315,77.98803499609251,72.61366294376705,20.46617653592204,-2.1465620838503483,22.798196337934844,47.59208082865346,42.38550545232957,31.09590042398846,40.725502822269476,57.09523733176769,50.60710144843639,22.073373338358326
82,-166.48903477108445,58.83882425785157,114.55637747578422,32.18622524768911,-28.24933320951276,9.949719403797184,73.47710465383753,73.23622523317316,24.027741759577367,-1.554407122528173,17.331314981125107,39.1644468302746,35.886487319158334,27.293180641361793,37.15431986570592,54.51515342762188,55.86432546861219,42.58922282686685
83,-165.64649958272938,61.50533829769087,116.06940044833127,30.54727248563471,-30.883703087102415,10.100671568096207,77.12987599114763,77.45238544902662,25.87389924613848,-2.28283013090666,15.640996935927927,37.965922351893894,36.20702293935,30.092477318739935,41.98952351736883,57.31806659580747,49.232195055575744,20.048150314833062
84,-166.50975339759256,56.31995602329015,114.48748052604418,36.886125863125535,-22.124775403249895,13.04486171729684,73.05440440006475,71.83509034232532,22.97623976068066,-3.248209994631214,14.333003514903432,36.433913529174866,36.142200791115876,32.07881750622894,44.782677437623796,58.46993534048979,45.52829697892394,8.644905984411801
85,-165.98583170123644,65.56817170150603,118.73122253834183,28.010396819780688,-36.154278740666996,7.069163579150163,78.24626008893608,80.93752292546677,29.25397196617712,-0.4388051132909066,15.361386208376707,35.93970552904755,34.098789612798925,29.77009608832773,44.156450250388616,62.29226310032964,58.78832340079814,36.820232741956715
86,-160.55292368628966,59.032738257394215,111.41750479913402,28.180929104361716,-31.98828109954017,6.9904693958669615,72.57740600549332,75.5839431965732,27.83463499194869,-1.3735560734042986,10.380055679539945,28.270743915378006,29.068224537163363,29.526306873400067,45.454097562686954,61.01467575623455,53.85754019449081,28.8650552276692
87,-155.8638925340686,51.75402750765459,105.61078302215327,33.746654470696356,-19.67504182165889,14.112405417034978,69.5908017398523,68.07710576624267,22.93088412014788,-2.77781778382593,9.358025064191729,26.82463223209784,29.741020144570513,33.85381801040529,50.84340728148826,61.85548969906384,44.144962759959625,4.145974941830644
88,-155.49785283693504,53.193851623243674,104.60692948504709,28.803243097153523,-25.675092222245272,11.16882618104885,70.87769028667586,71.33357435806816,25.03048239899073,-3.4666482932090528,6.475710588836947,23.895197184437016,28.551022386226684,33.98890982001861,50.71117151428512,62.72914196172217,52.24259355423699,26.360209062613773
89,-154.29125248501552,56.20397711123902,107.78143106641403,31.92071921248982,-21.376864125233862,16.535278114891913,75.23361534494217,73.57817303623906,26.649040928766027,-0.8061717401863621,9.811739613504011,27.01956857041682,31.969403228303698,38.140402904598766,54.301670821693236,65.22906226734885,57.076089454440286,38.33155530483404
90,-144.37466886255586,66.93572426903641,112.32270997905181,26.857457479449625,-28.621784627828887,17.493608717955173,85.36875986828518,84.33287853961129,31.207372610309466,-0.5093547268712639,11.64739957533846,32.31039155411082,38.53312983702188,44.560169671990714,60.72694198426974,68.7312625593916,49.35760340556563,11.033140954580626
91,-154.37269094213397,49.949915325948126,104.47878773282385,36.95331692071763,-12.56807926983759,22.258921211152032,77.24078722020523,75.1245086449048,27.975305262705024,-2.208663840197418,6.170144562654276,25.597905415172377,35.878691191050216,45.66751870854387,61.03623928355032,66.925391571984,49.75838965219775,18.517272558860753
92,-152.90581066727262,57.327081791812645,107.0084953404415,30.499285764939486,-18.71197731416903,25.930329133921777,87.83726159577657,83.09909287628375,30.246215736044686,-1.1632844637752628,8.932301681937899,28.00286209606172,36.13560692681972,45.584355688662725,63.24621840935629,73.17532712163018,63.079417872393236,43.020404775109384
93,-146.69638666705893,50.13078883850921,96.9908874049434,27.315088501587127,-14.739882333446667,30.495943632022545,87.59661928849367,77.85829399150796,22.884237499103307,-7.976499084590146,4.313918639456651,26.48147159561388,37.27330079795894,47.077962744518764,61.913111971881136,66.3903553412364,48.90718343943079,19.7475865826768
94,-155.40291901632287,34.701151759284095,90.12480634593877,36.418410953341215,-1.3014397897707146,34.1213638490292,82.71074437140842,75.06381686750683,24.644853830187422,-8.871058739741969,-2.5065854222188833,20.085290146023244,37.623388311106396,51.82704312375285,64.07736678208161,62.64387469814038,40.678370838618555,8.77120002393717
95,-154.60450611882175,50.457661509147016,98.66830871155123,23.89330814186439,-22.55319541382733,25.860565827713817,92.46301438318187,89.70318339382165,32.52090009680899,-6.398438823238701,1.0959713879682649,25.6358871307999,40.94623836421097,50.8705993526569,61.548731370765985,63.85632448866851,51.67202008856293,34.67396191000382
96,-147.092272473605,47.165005110137926,91.66835675647681,19.31629632117135,-24.242105764997277,24.864819755565644,91.61242706509358,89.5358451950648,32.0878568587903,-8.690017708792988,-2.427161446733848,23.395007063743083,40.9361461087318,51.056993048970156,59.39897395198616,58.85973704636781,44.76556409619931,26.340555732663827
97,-139.94567673426758,52.25074537007804,92.37074712422596,14.773514098692143,-29.45435085239005,25.80609105190692,100.13356251771103,99.56364292710545,37.09176436688956,-8.293110659642135,-1.0525204151297531,28.651305653449622,47.47156631221101,55.71459135679166,62.15522733227456,59.067828172176135,36.607788142071406,2.4575668035722655
98,-145.76749509046297,33.178251221100844,82.51300530065042,27.82893942239564,-7.7888634878017635,32.62456410536555,88.13557669445402,84.40655641124597,30.763012124794272,-9.591262286277164,-5.64563181338844,20.994392383436296,42.38771948370399,54.105367585282096,59.96031169350582,55.8847421329963,39.31246779288247,18.56402774210113
99,-143.05398016023963,35.84759356491227,84.14287882267953,29.543918620658275,-3.444171777770698,39.419545145884555,93.75876593503324,86.36654290677836,30.739817612713882,-8.581095889350765,-2.9420110193949,24.48041064271992,46.43446116055776,58.29397684533619,62.45259417868292,56.35825410381359,42.18279848960464,29.606684394153458
100,-143.24324761150578,45.727323053718166,94.34167848812565,33.47385951827627,-1.602776876663047,45.41485889096019,101.56923384869859,88.83838374318013,27.578809322625425,-9.34040106897008,4.39599951617156,36.29919228050195,55.67621164612723,63.41844716958714,66.66517214463782,59.19434231826843,35.88439581616552,5.686076924809248
101,-142.81534022597083,49.49674508532783,93.12434555631704,20.124476423906646,-23.20997530462704,28.87517172896191,99.88295309030015,98.12458649559058,35.42472801112065,-9.969963377868917,-1.33607666165723,30.897399484630828,50.42184488521416,56.005559710804995,59.1942485389639,56.18598775371396,38.00933003465582,10.525455612844462
102,-146.0746695449313,53.613417311750354,96.92800578907409,18.335170281382208,-28.62929436434456,24.060180073211342,96.56830466761274,95.17749255932273,33.39924889955739,-9.649412659107288,0.35374205311700485,30.89613643083782,46.92904992410119,49.80638113699211,52.60145052111374,53.21243669573192,45.246647421068495,34.43736420163462
103,-149.15311977718886,39.1248698799314,88.86712835152622,28.158667865177346,-10.728639263257138,31.72739539962941,88.50467628434858,81.38602468504673,24.437833396169033,-13.041709539191004,-2.033489708677227,27.960097800421714,45.35983776437697,50.332330948249684,52.97678379319047,49.95088379460742,34.93047066811224,14.207309187091385
104,-147.69576150884942,44.40586569656655,92.8184770408208,27.210955249378003,-13.995555887431163,30.820004453532853,90.55242631044096,83.49546977663628,25.679860280283954,-10.292536705627512,3.2471207740469064,32.59829855067913,46.018778723476494,48.7006202575579,53.92803167842013,54.27983057457259,36.38522451057744,5.503012955728793
105,-152.20185472387456,45.69259630082605,97.16946615426124,32.03617943824416,-10.740936494901902,30.57560631564587,86.4578029608727,78.5016739068693,24.0433458224027,-7.622811369347877,6.678965714614276,32.945182523618676,43.07377399841609,44.891904012651636,51.61375195792738,56.48722668037521,48.936908424098064,34.63664289815694
106,-144.81774142342124,49.67577336629263,97.21134669090155,28.020283640552915,-17.0421625227207,25.1729063468315,84.33564507276802,79.72169014983665,26.947055958484327,-4.8424205956618325,8.193560460686795,32.67645493826966,41.15119061524179,42.21022796223931,49.227096244183514,54.326625783844,45.280780462494306,27.413191641134077
107,-133.67270395771914,55.87396239654417,96.0552860077337,18.88674111723447,-28.75139219928829,18.927053945091902,86.45338677294131,85.62362033030429,30.615274692355637,-4.488853373586112,8.053788979192614,33.38950345440371,41.31971579267005,41.40725562066552,49.14657344892549,53.97272458664924,37.40706618999369,3.5949621284947133
108,-146.65689342723584,40.77327063144712,93.23782416213756,34.57733116285532,-9.13907968102811,23.626926198692644,74.91073074271102,71.7455735213406,24.279494376762045,-5.898465713501735,5.653894807803944,29.64201906197354,38.57132241091738,39.073616314357764,45.52311726195623,51.617956885042474,43.402706529511896,24.233051833541523
109,-144.74055460785544,42.78907782901372,94.58704563628203,35.72584503838569,-6.908108373584734,26.500454771708345,76.14318121506629,70.50341384799937,22.88589773352396,-4.852285172566221,8.689427312167998,32.200452863976274,39.464376378408666,39.04793111531341,45.54931973744219,52.66375351572159,47.660447847262766,34.26043280710832
110,-136.29782132621048,52.03611778324649,97.80148905845563,29.080051287936506,-17.058442862615035,22.506336962871448,79.82274972026809,75.04000510312183,23.545876085993193,-4.945015690823662,12.671345536681947,38.92330982121115,43.403045145964796,38.411119080211634,43.575998830017454,49.984040919494966,37.10243366219847,6.773767223991682
111,-140.87102737927182,41.189553758230474,92.94381098041875,36.5387704730686,-6.903158214646085,22.211710139155844,68.74406020561729,63.76417032127859,18.946569410299702,-5.871692897074979,10.041839063839323,34.126201235851056,38.86514571027973,34.64598442403433,39.584526158024964,46.56349093217524,37.190173025649045,12.813512878049503
112,-141.49014619152388,41.497991833035556,91.50076078283494,32.7949638827916,-10.64400395936882,19.973765610358445,67.07012925232397,61.967697488692416,18.271354890015587,-4.7743328338178195,10.866226018740978,32.31430720251037,34.79707807045341,30.37367371514365,36.482625706487426,46.8351984501386,46.53527870493027,37.62322345699789
113,-121.22913548199882,57.423441921842446,93.93742532312072,19.273971858086966,-26.86034730947056,16.593893373193925,76.99576114348376,73.21702406257721,23.293920177554348,-2.109777656183751,16.938720479315492,40.34270584539705,39.82800556351423,32.05302003063242,38.35336886181388,48.44314248401888,40.19137730912043,14.777044750515817
114,-134.89769383150937,42.50924139450055,92.53701625581641,36.984936371880046,-5.87299853339713,21.20692075097828,63.96375798130047,57.07642229204394,14.772097246030912,-4.769769524365633,14.668962671404962,37.781711972454694,38.68730395925576,31.552789706059475,36.26217705961098,44.04298818745589,33.73814250590856,5.965893849997146
115,-141.7740628461581,36.82737817378062,88.6580353767281,35.35087687691983,-6.469162652690142,19.943763393001856,62.077544767749835,56.03487443980532,14.770224136236981,-5.767864741417063,10.940504277603775,32.345179640671994,33.996993814884114,28.355638844813843,33.775327628945696,44.0244037553572,42.67989975747991,30.85595223573106
116,-137.41312472071658,43.41192954282814,91.0137405236957,29.811686283008015,-14.89542467627618,16.539858128439384,65.43170837627925,61.210049561343745,17.2181176351123,-5.865110494443001,10.669091919150583,32.69450768867617,34.32287201203437,28.576885781459776,34.245226889336244,43.6933625713133,38.72042882551981,20.67078095585009
117,-134.47479142189016,51.27508669328263,95.4907091626667,24.843250059348534,-25.079134604327574,10.258969221897804,66.30440021805971,64.7844193968963,19.0104862596971,-5.12029734736001,12.8770668306126,35.529258964775664,34.89385635097114,26.78420464900327,32.719872426124844,42.07255274579372,30.596551789761826,-1.2718772112515968
118,-145.41953430760276,47.26985644976728,94.5510837353428,23.18421960020509,-28.337838222984992,7.417118835146391,66.03063854458479,66.53295633071035,19.87295536969986,-7.214386738019877,8.60695060001515,31.099024000567386,30.933760530934975,22.661043951428137,28.985647054730286,41.910582808645785,38.81426259844634,19.378607057260492
119,-148.33382599444482,46.42634374411454,93.91075581748576,21.630305497510047,-30.711912063312376,4.2666682280946935,62.21190573492901,63.429564497771395,19.10728402492434,-6.583990001779772,7.346150012348543,26.37732521389242,25.01744038046206,18.469689414365302,26.70282475084031,40.84841518612706,41.08280750395758,28.56290581992414
120,-146.01595720383565,48.85011147130992,96.52118239886578,24.302446969427923,-27.87102225687966,7.117825104963781,64.14886275771757,63.688838992461804,18.432031739851478,-6.4100189341615375,9.151172644854979,28.794052363573076,26.960545104393677,20.49888955798485,29.572037552912477,41.92528816433206,33.43324577252616,5.411589728715413
121,-151.21687086290075,49.325937467024616,97.3996398476532,21.53695072459477,-32.76000425194899,4.45041783202071,65.22123814101973,65.86848738377267,18.816100922946003,-7.682247607754302,8.076318700670853,28.266854236932378,25.617635525169234,17.966914597658988,27.673472964891157,42.596955275977315,36.71589521651701,10.486962456066747
122,-155.70866983054512,33.854091721267245,84.40741518963452,20.883636511639903,-27.088530056491063,3.593777872928397,54.74243743622418,54.01753168737742,12.058303183908803,-12.513647847745796,-0.6341206045722373,16.504265698142486,16.110916905302236,11.930840914166051,21.47424154449248,36.3237807880544,39.006896537034564,31.264347662194492
123,-163.8026840136388,36.54489911017216,91.03239231503362,25.73406896852297,-23.7740506564379,7.276433947819078,57.16650575314021,52.36293204056661,7.818624427706452,-14.209756039431944,2.7518882560305267,22.254062620169808,20.480607313739146,14.531879296429143,23.669976431145344,36.482020410236686,31.429164459500225,10.476590129106292
124,-154.42003359660694,57.61002704911529,99.16154689411579,6.753482110194906,-51.982202189079445,-1.8850073088158859,72.17334834540131,72.37599956547375,16.71988880886083,-13.404498454133135,5.817121870079554,28.85376339079206,24.627254333500346,14.911602888952544,25.428757324556827,41.65184154452458,33.73152701949804,2.2069805192120744
125,-169.3633831273003,39.9710530772317,94.14798067124015,21.607671847796258,-32.36793316627634,1.8824156733446908,58.27349579963176,56.64708750674533,10.65878867706603,-14.117581015317484,1.29055744146708,20.06900359300704,17.603993105579768,11.683508483191092,22.758114422118357,39.7590818608432,40.9749537369972,28.14661224820431
126,-168.25358183018747,42.92606246544128,95.14997720315147,18.281215724483754,-37.39981617891523,-0.3389109138628647,59.974056087485664,59.496585330104416,12.140840422521427,-13.617372891439459,2.332226056166413,21.666843759299756,18.588926265261687,11.77553825857416,22.753148533664564,39.44767501844109,37.999599593444856,19.84287828879963
127,-168.3880855709012,47.66973508812109,98.88999272564003,17.415988110200725,-39.45191675774539,0.9889130275169009,63.400892790927166,60.26296066578331,9.413455921423317,-15.69206216357694,3.825371643089974,24.710100829806457,20.037521020130487,12.145850179792221,24.475379858484008,40.8795829436322,31.692113824041485,-1.6634308625884915
128,-170.33289607977034,52.98935425899504,102.90526645798576,14.691465657761768,-45.376122994071615,-2.1589771966429407,63.6197732126383,60.69234566291716,9.435086859404421,-13.728743621551377,8.033918458290168,27.725995298348057,18.777383718577397,7.459769631562469,20.13194918898509,41.10688639488196,40.53016839740104,19.15434343198289
129,-172.90201264327038,50.44612632950372,99.76161680222542,11.186495259877775,-48.24296305400734,-4.075772635315013,61.98954066725222,58.9265706122281,7.7316926114079,-15.724826103901194,4.438754575065751,21.897990275100994,12.114706120924701,2.293748854569407,17.707388153096545,41.44130818482584,43.83472982706949,26.24524985715582
130,-171.09676150639658,48.64969377679203,98.75681998515967,14.449741450263714,-41.74402043488,0.9661830755271743,61.45578904840726,52.98563369903998,0.6746969981989922,-19.353459172876875,5.181536005193733,24.319576757677137,13.521156345633345,2.907316789423282,18.906491031590583,40.88822363532619,33.77003554125224,-1.302420159000157
131,-173.06185136784418,49.005332393480714,96.16295965571025,5.670848212966851,-52.73578374679945,-4.55011236087721,64.49288439461938,59.703325191692045,3.7877228434635155,-21.94150015622586,0.7922042167418798,22.176785608744456,13.390342805232766,2.1342026686592166,16.746049950310493,39.540264330462776,36.16610994016345,6.694578436144826
132,-170.05960650759886,51.135853826482716,93.28957447884211,-4.799681249385002,-67.41861411114454,-15.559473886926847,63.090139532075916,66.68824434173685,12.114856789874684,-18.754569477544383,-2.2297126402230583,16.282934653296074,7.856243568939123,-2.409671401796419,13.013531420001947,38.93043484587378,44.081100374791745,28.249149570923013
133,-164.93518025301233,52.893064183794536,93.39736643111014,-4.851134953367676,-67.04691089208367,-15.026614937090777,63.03091480846695,65.51759860121311,10.34229628350812,-19.743101837277795,-1.505165269673437,18.179293208620795,9.657728494856842,-1.2040604496757572,13.596737247629884,36.981560773825805,34.65361808977614,6.257700581034941
134,-160.79285472549526,54.44951567493745,91.70474359879756,-10.229010938625848,-74.53592230401107,-21.017452104496247,61.27605326441431,67.01670363484021,11.552254938569861,-20.779394284407786,-3.3644467542514755,17.5189732177683,9.629955052346752,-2.9666785948436583,9.038032748264822,30.73139978950993,28.08461883545185,-0.2886735373306516
135,-163.6789183594752,47.91876054409766,85.5631858571708,-12.368837411775145,-73.44990998707385,-19.76073853031451,61.72359050543474,67.87201444362509,12.753597564775458,-21.54393928511559,-7.331258919669371,12.577161991758901,6.774988907069076,-3.8471739096936894,7.843121891187763,30.3341531517432,35.5077907507005,22.53794080345272
136,-165.64676911876558,38.66827616421502,79.0158788072126,-8.630735885692376,-63.09536387453124,-12.983347480571542,59.48332665981093,60.14175624711924,6.144516342827727,-24.411222667674494,-8.362043029487433,11.10923400379318,4.8464589632353485,-5.081681963240295,7.423258238402066,28.911280965613788,29.95129304095489,10.051170116878922
137,-159.68120372051325,49.48467094538447,86.1618723030425,-10.584095672137199,-69.07476786655897,-14.75441864754789,62.66742338891122,62.618474258409584,5.468782639515901,-24.028851114743823,-2.783591285607128,19.843152643391804,11.285090620529244,-3.3436971249377447,6.032357428100883,25.157967713427936,20.751287197648036,-8.661219463963263
138,-163.7846160561109,48.96267173074804,86.56147666757663,-11.05068024334388,-69.91943769258953,-14.599041856433688,64.23599040051586,64.73865149161337,6.916974726165283,-23.91935984960964,-3.71983440275078,18.831580922592288,10.80719631651247,-3.843861668816803,4.9420293926046766,25.69626793865519,28.88043057270356,13.109884051614989
139,-162.27402198368407,45.1769603088158,81.59904941126791,-13.870577346424074,-71.27982348747273,-16.610921337812442,61.75215770706452,63.517997406199925,6.8452973758915885,-25.17001534732687,-7.4110200296389,14.338921977541563,7.678634850241028,-5.888159851674943,2.140789966570962,22.33786971785024,28.492883694902712,19.449315963523937
140,-155.216605002689,48.037778860509555,81.93205588006863,-13.11428879281526,-67.10706362210081,-9.026123780128668,69.02095153358164,66.87866189628139,6.836983075379748,-24.89918450481625,-4.369787351328072,19.719101314039428,14.022525244710128,0.776810929028173,8.023892605867166,23.91427760889828,20.100985307688788,-3.8274602800894595
141,-155.25781063895067,45.62422171506645,80.20453629941603,-11.458121856480105,-62.73865459330607,-5.138796229787772,69.96901625983358,65.07102037023446,4.272241888268225,-26.339158050453708,-4.1110245034172594,20.933204247041168,14.963823327223876,0.863220175764294,7.949946792878604,25.289223482131344,24.581640173695156,4.862685581343359
142,-163.304172794735,36.66374959629475,75.79899682754024,-8.367108918875955,-57.32482174719358,-4.909352692875956,64.24616679257022,59.09387944627745,1.6969205652090436,-28.25787555208573,-9.408262439696356,13.105589433552291,8.807437212089413,-2.0023178757750704,6.459306364611572,25.15893773347741,31.245847489971368,24.90920433582819
143,-155.10112651860993,39.049539412208624,74.10069277728219,-11.772927548717556,-59.426715067166754,-3.2850883387656302,69.34989906350089,64.75196615201607,5.285495610577977,-26.45947873134566,-7.263501383690462,16.582375200566126,12.73336092376139,1.5784431607385525,9.5754042397452,25.715272630378355,23.330225441326387,2.1717819187082226
144,-146.51573204862208,43.31748611147454,73.87097960736787,-15.725137315859081,-63.99497994210761,-4.668779834151066,72.16337974421215,69.14252545929727,8.314517537112247,-24.690286191693943,-4.485273629336533,21.250890593902025,17.567599893944728,4.612292895608975,10.621625738496911,25.136125525190824,19.885136940192524,-6.357264380501018
145,-158.75317864270482,31.883413396530386,71.87481565373072,-4.933001975074316,-50.78204814272225,-1.9555790478058015,64.09777586674741,60.86164358927305,6.42967940000107,-24.191264918153923,-7.811745294209153,14.745424078641749,12.772881018178671,2.829650970076429,9.328579429453617,25.39224177783065,30.001172305209167,22.82271153347977
146,-157.06724570113602,33.41271351582385,75.79105918416478,1.4896189439457959,-45.338622854204154,-0.028825805434917338,64.15293070136161,62.10831024288984,9.336740568733536,-21.135725081764996,-4.953300981688507,18.454591819011277,17.405621286015066,6.940498515281902,11.672762156917079,25.38991353955863,26.431542655544426,13.946428703535725
147,-152.72758022838292,40.43551043586391,81.19384268677867,3.257249260300008,-43.452474255433415,5.682146920932185,71.31488439163255,65.61611819670307,9.061181761581848,-19.874483570973734,1.4616676642702997,27.77509957573106,25.57572670935499,13.38625722260735,18.009296096131838,29.854087846526074,22.169683054107843,-5.949883717627875
148,-155.1205182594752,42.76664960310957,83.06960557669584,1.5079392422350526,-46.61959240852263,4.920433121396678,73.57767257928178,68.53247695409378,10.722699908822857,-19.43939136032847,1.345539767415666,27.355340580538737,24.921603925734136,12.676914992089406,17.84513014512777,32.602260006705286,32.84836139601609,17.843929744336517
149,-158.1654687727792,39.467383558651996,83.24763289666497,6.676203071711314,-40.80103400542707,5.901185419224261,69.71121882797456,64.71432677409359,10.21706648476734,-18.33376808283065,1.0033672908784044,25.57592139574975,23.832575243176816,12.607060685495497,16.99206713508508,30.99865779402531,34.610319453206245,27.737977747540054
150,-143.65180603974372,51.718683071203756,86.56644008520175,-2.071870655646007,-53.632629290386326,0.8794783191946606,75.5217109009633,73.89730759709674,15.3575513532441,-16.635707894295386,4.200999855150598,31.668198635691034,29.68442911292504,15.771674739646448,17.885178716450998,28.807355886061202,23.867917530772463,1.929746427202869
151,-145.6539068462027,38.02635436325096,78.8112962310372,7.491370878488394,-36.559877679218836,7.856544931021075,68.18537126952681,62.45465016003726,8.608342694225266,-19.80337241119143,0.606269688055103,28.46031761448051,29.628432844762184,17.472441589802862,17.22494044319077,25.43778535874104,22.932683021088636,8.732144333443012
152,-150.47908371762108,42.77632658011173,83.04894271603719,4.3086614225401565,-43.491974144605045,4.789723387654291,70.8201757783697,66.7656719141577,11.455344198801052,-17.989068699072426,2.09704751715626,28.52628905842896,27.592157162423902,15.041815195222798,17.114027639556703,29.6502369264885,33.25887612540135,27.17335020959493
153,-141.35589057936642,44.60335839548859,81.16645107932834,2.232907568735803,-44.072400805230565,5.608901620114423,71.92544252351026,67.09509812452278,11.06109272248498,-18.010814677970288,3.0626830900683517,29.635933988697953,27.978511452007073,15.771790318742703,19.7680354424661,31.78984174887274,26.720596465475737,3.4992189993512346
154,-149.77977909118047,38.49021770739675,83.22699096974436,14.071962859341589,-30.492593483110443,11.041756811488687,67.87223235142369,60.29838321312359,7.3181301594013455,-18.777546007688606,2.911179935689094,29.999097868181813,30.176445674602615,19.32912569127723,22.28396319836332,31.510585659812122,23.777038100613648,-1.3681878042435331
155,-141.33052665278677,44.68267015890082,81.43616097223673,2.9707435410778342,-43.346269310601585,5.4930478046046805,71.23775233442883,67.24695907990525,12.56079486959395,-16.750905042868936,2.4019962063111815,27.900311074302266,27.52179168269061,16.890646321955643,20.442539244276464,32.3588720942288,32.9665126924041,22.26279701212933
156,-144.26565355083494,32.159383269367076,76.87884786915845,16.90730347322365,-22.05108282136393,15.79506892649014,66.77271627371036,59.1447681211172,9.64952130416965,-16.8052137541005,0.056035596267433666,24.611926869773225,28.13713087511407,21.661679238404627,24.508279568095507,31.99892440273037,28.82666056836246,16.282634700790474
157,-130.0931255295897,44.92394781119416,79.95495233440262,7.914838176528296,-32.304029357282396,15.832046669834343,75.29005667726446,65.51712951348239,9.805510010306861,-16.51035608609324,6.33558748831938,34.12936818121941,34.762430400390784,24.389237515911184,26.597537127630137,33.28178699702992,22.653465050399394,-4.759947219076143
158,-134.39879529867846,45.03657050117317,81.80815411067468,9.936516402024253,-30.295882364599727,16.667152094594186,73.07075713631399,60.85159379840401,6.181735848153821,-16.932096340890464,7.230384736060092,33.375666310946244,32.26697905754704,22.153821133969544,25.817249275369598,35.04749283653564,30.648192564280027,14.202345495971446
159,-125.47803844343679,52.79250020459542,85.18468357342606,7.173139331405463,-36.39996485935414,12.567208611369574,74.44874270048489,67.12203304055068,13.92111842101629,-11.224680695067494,9.654036179182341,33.982182896173214,33.17467299164082,23.404316660304566,25.74438623975065,34.180735248783364,33.93433857242147,27.217739120416127
160,-125.00150665508572,37.29027202328543,74.38284073041949,13.456676820436453,-24.25582095856829,13.510291122303128,64.06073494135285,58.62845396269332,13.632072212722802,-10.194587176585951,4.9223088222371665,26.25384691794599,29.27989452681832,24.425081008822534,26.706541819985,29.831377669843203,21.059644281882814,3.4189775213131317
161,-116.611916122567,52.687979545451036,82.47136724473198,5.325202463909505,-39.51714671619879,7.367941951465222,72.0176019335061,72.07092103734084,23.568841956992124,-4.0526266999368765,11.26853937009565,33.43577007349201,34.618846231814075,26.847158223396626,28.206565100107486,32.734158879171574,26.14909570094338,10.738792303259475
162,-119.59333562858593,53.12240949736789,83.09365163078868,4.236590053685201,-41.4935422876618,5.477205565816078,69.64349917999118,68.69596101134267,20.169814457201003,-6.496351814958419,8.946381205596518,29.66843642661404,29.406675313077564,21.843880520736285,25.235466811141706,33.810685790696056,34.65644390829596,30.41390122504527
163,-120.5829288158585,33.92787902552224,72.51734302582234,20.038554907034396,-13.071686945270333,19.89648473804156,62.070039711684615,53.46222134896157,11.463740213511882,-9.340117676688614,4.995338741181091,24.66616353360802,29.14986529822031,27.650757245904288,31.06008027276743,32.657298613942814,23.44353079614491,8.254560493369418
164,-117.71774298407783,28.650193351701287,66.18439797314676,18.041786360501217,-12.000848478746692,20.100557682573722,60.46141641422912,51.77690021845606,10.426776558493295,-10.643188158250219,3.170138457161055,23.301304261338874,28.763281251053503,27.702026743590764,31.003535119064257,31.905795239604245,20.14032037806961,-0.08781138044997006
165,-114.71505490967822,34.82616922272226,64.82789189305751,3.45404590585025,-31.16262826287366,10.571219766695222,65.30346060092582,63.27649422948162,18.561868018703493,-9.036682985101159,1.0568187369135036,20.29296004911631,25.217189155767308,23.536049763543627,27.967443868520444,33.89823023302363,32.25571925782627,26.453948844005613
166,-110.42460616169178,41.04249477111538,70.95741131062694,8.708007527415054,-25.70184409424387,15.847622427347437,67.55214250701209,61.365248320946826,15.927224868588597,-8.002482146885344,6.034711717710565,26.041299380298337,29.621325573348308,26.86872827149036,30.327342414289877,33.95069762449519,28.778943733703414,19.192094551565503
167,-107.39346892729297,46.56909680190782,73.70788198455844,5.390487230724084,-30.80680856049798,15.82343812360143,73.00220550836858,65.71941361155653,14.60506091560039,-11.557163115979149,6.647438568921414,31.511784069387847,34.842034197704564,28.616308765132498,30.491676781549057,33.27009218426995,21.134159247417895,-3.4863832229577394
168,-112.16236471580324,37.00484759988092,67.87760377220056,7.3817846757533045,-27.619906187853253,12.981257599992908,66.70515273223407,63.497076131474174,17.420206026899617,-10.114187392219133,2.3515178946615656,24.000652787831037,28.589804611936096,24.80526218888385,28.527007364020896,34.64696721885295,29.568851102591196,15.102503185089342
169,-115.57288139770523,38.98528991527452,73.43791838235578,13.607308844658135,-23.859762929607278,12.734907988983684,63.99867052212527,61.976047938599514,19.5138324543327,-5.4886656936431635,6.330122091327929,25.482344563347247,28.386035148208933,24.5667606962763,28.93569731971599,36.165092642905826,33.95829600240875,24.610633127110738
170,-101.15456805719398,51.3963010382126,78.52305653776426,9.79409956291068,-29.19005040535868,13.924242305857872,70.67554625267174,67.22790093125357,21.295430418958034,-2.073203945728366,15.1483724563863,36.3184462525987,35.569817304687646,27.467734791730386,30.8776019707919,36.86833546200152,26.28060578180131,0.42750901074017283
171,-110.24304239001177,45.95063878483517,80.21478899121786,18.951296181175852,-19.35721658933725,16.328052787987364,64.59642939821002,58.872830299081265,16.71810564261417,-2.303715622719866,16.177914671990937,36.33493600966761,34.49029566922629,25.971173180773167,29.610128662000243,37.13342593442222,30.375589052694504,10.505569037866032
172,-107.62138010065127,48.98556012553989,80.7974063323735,15.634595662809218,-24.343778120012807,13.482575334104645,65.7872145584919,63.055801348807506,21.51249066606681,1.1568635011806911,17.42211866017023,35.50587203728341,32.463460227561974,23.832579552746726,28.60544413576155,39.63642015437231,40.46689313502523,32.10893386715798
173,-104.1750853435743,53.404771241552766,85.90879044127252,20.953897915786154,-19.11484938569273,17.8071817944622,67.70137448730416,62.10681148060109,19.875115849052786,2.12605178407267,22.00008905628586,41.42040626972034,37.0552048765162,26.966367847703626,31.496819841959145,40.874551846270215,34.58602948687438,13.449611672573234
174,-108.8783190451893,43.644957811157845,81.96620403258994,28.8703944533356,-7.0627932169954875,22.026830970726827,61.561337205920154,52.64157261572267,13.389268403464904,-1.1569962598591876,19.84307683385721,40.0344266152399,36.79918987549918,27.10635656781258,31.03008513927531,39.33037715674275,31.026741982808936,6.382746360227545
175,-110.13457097210528,49.93046801627595,86.44109697609053,25.512979223587188,-14.024714670714118,19.42506723100145,65.39113769693445,58.63471599147702,17.65791410989218,1.4404973969708865,22.137726065522664,41.77340806301014,36.83382826933222,25.415009756494193,29.420769541453907,41.60671688436988,42.940598444344644,33.343444000788274
176,-100.95963631789199,52.2798508359151,82.93747725549959,18.698064033142,-20.393370291809944,16.254549169810844,65.67699971568018,60.97853502881871,20.314784007920824,2.6272547686413334,20.691162650164188,38.64208720450379,34.78562033509709,25.942775022650537,30.705953301106852,40.69733013904356,38.91519296059758,26.775258620952243
177,-103.44072962016817,42.697866387411864,77.51649406548175,23.71084862950281,-12.014906746566139,17.54833113525054,58.789330430216935,52.797103345941565,15.375168724125341,-0.5562080277291649,17.038285034301914,35.33534581112934,33.30128270490228,25.655588787073313,29.605506355497614,36.3087621224063,27.537799477505267,4.431520657008861
178,-104.40359447654633,56.36337188105737,86.8484877417957,17.649729433504106,-22.805046564375644,17.74522498448424,69.87513872840982,62.36655885337932,17.268941644936717,-0.5144134341685886,21.649482649184687,42.818533629853874,38.415676909301354,27.18188933220755,30.62635195665898,40.87265061057401,39.8997411157126,28.721652140030624
179,-108.43801300402066,49.826464935746394,83.55984324396307,20.99634729403671,-17.109425819434517,18.91713244619921,65.20206882799347,56.37260942104094,13.602959230029134,-2.900646730608658,18.070835145540023,38.35667161594161,35.216449761527954,25.604278104182352,28.95513907909758,38.717132996577014,40.0655396499599,34.605345136248815
180,-109.81831581908885,51.40057556662979,87.00163023260437,23.647866338420997,-16.93361456857379,17.85417074136339,65.03606829794863,56.91685844997795,13.162738029451278,-3.9215404992370084,19.06626435769816,42.128149084329095,39.3198092556329,28.246840403943917,31.004143747108905,38.89308282971583,30.528608125417925,6.118280581320341
181,-107.30669107854776,47.366100457903094,81.89581078212078,22.441830215262872,-14.292239294562066,20.941778880845334,66.15025059331771,56.187194712758405,11.843523568312863,-4.758510583271148,19.434660696622263,43.83671762615777,41.5155335554635,29.702579213220574,31.534459829869622,39.88009022834805,33.9343316745269,13.146414495494472
182,-109.14652061203601,35.91609847739275,72.81097970376408,24.82887031064532,-5.244534964134277,25.16690820185214,61.93267077600585,50.08088266214383,9.650553656209604,-5.476572772434416,14.936873327830584,36.093268856765725,35.84437743806267,28.323310851204553,31.53743568708027,40.202140809546115,40.48999368123409,33.55755140880158
183,-102.24536870896792,33.989276416813425,68.91689813867812,24.515969973325415,-2.6405933708398805,26.875671392198072,61.340970037902196,48.96670406157752,9.437791530081894,-5.593761163694728,14.000268011634313,35.51923608270861,37.56680381571496,31.996846134175247,33.91241549036705,37.242501630489976,29.11628385467053,11.70765027100178
184,-102.2414262113123,37.476042657086474,72.70252111300397,25.893623501374602,-2.8516590849418555,27.903811544709146,64.5852805448609,52.49902169543452,11.270184616650731,-4.925100174573808,15.485356067154155,38.441206105523165,40.73655705889227,34.507222908458914,36.12249974317782,39.002125790071695,28.21226948033099,5.511181814546187
185,-102.95991359760924,41.806882920096065,72.81498281396827,15.655639148044504,-18.54339197895074,17.584999298496452,65.41132132626994,60.80583172975098,19.119236985603404,-2.465915812823677,12.928025772502517,33.83590708418984,36.127534438144984,29.95614908665329,31.773159337699735,38.41176438281286,39.11431382729127,35.41637272141871
186,-98.65296516525265,36.61916378763883,65.43512076358444,11.199333896280638,-21.720236672886003,12.907721818953652,61.06893703794154,60.09662181166614,20.513691056683037,-4.265972819641283,5.882195455564997,25.315874829289072,30.620756089639038,27.5610570419729,29.304412470448536,33.51079542240611,31.536723794114852,25.39447641898695
187,-96.24299660545782,36.38711683845058,66.06350816401381,16.426342105190887,-11.80417972592871,22.488913088017124,64.26375131005929,56.26809764197641,15.372395248531802,-5.025946591356149,9.507386357560929,29.583114097240742,33.81874549961885,31.27991003022498,34.207961911025535,35.91023249988205,24.756474296310063,3.9720273660374206
188,-96.50248820391067,31.455116247204124,61.09312670877788,14.838019681918672,-11.650369839198925,21.362398434971972,62.36261240105056,56.27175952288654,17.250758045596235,-4.555494996456364,6.460082197390312,24.646482724561917,29.68116219289329,28.36598251445912,31.752557885483288,35.757641162904825,32.377516798757746,24.70483066904489
189,-99.97130229488111,26.935753611132686,60.20015218186028,19.925251328084315,-4.977405335014601,23.45015629108563,59.44393963000429,53.430587761019154,17.84262753348173,-2.8963602806038766,5.320782708816895,21.111962121308558,27.64322929372238,29.672875228544143,34.202519531148035,37.153769097980216,34.24854034688447,30.146771343557734
190,-90.5169904387404,34.56521464016034,62.51489755610383,14.179096490339925,-15.40823633250408,16.196311252086847,60.217506439887636,59.749335245640765,23.808761296811863,-0.020103381974665175,6.572506459178162,22.316407062722508,28.39970290953745,29.821984659179464,34.69747512425048,36.13717708591751,24.144593589814743,2.515276785003017
191,-91.27738316393639,46.440585225936445,71.49930322660332,9.441803763604947,-26.924520394607992,12.287818959691423,67.68247301398242,69.71297846824956,28.42632605689396,1.3232789944819392,10.420789853246248,28.555919510479725,31.967594816314218,28.972393190865862,33.703406493920234,39.48048311464029,31.705612228419252,12.237509175200275
192,-94.30711255409872,43.24217232752554,70.99365591637124,14.316841868265167,-18.383859121214687,18.7022344750511,67.5494960190593,64.48506043302211,23.516035059771102,0.23616250192026791,12.154169378370362,30.47657806461142,33.11340936001412,29.723951270588977,34.440854252390075,41.91182395075068,40.55130209021885,32.63928961387676
193,-90.38464026947942,30.26742888502644,60.8544979025682,20.64265608753396,-3.4620874358615303,25.567279391597225,61.481816817611154,54.27043410669816,17.479083363765717,-2.1397214836747676,9.345534916610024,26.6722363003459,30.677720638348227,29.738583427503197,35.27246979545346,39.684202394191956,29.35165759252786,6.6452909643284315
194,-87.29015060886518,37.62255601222341,66.32135507882437,19.698882549999073,-7.749297274615895,24.487313339069132,65.28100487695961,58.52917341620469,18.70133996445357,-1.6153747569273023,13.423452442765779,33.94057467232145,36.630752310622384,32.063386995506065,36.262433108405865,41.166985845312226,28.1023551807669,-2.332374343305726
195,-93.97453636544618,39.63450852564501,70.9327028192541,23.56958043417191,-3.20813420022912,29.534142972978554,66.41583958765196,53.400828707691396,11.973425815519795,-3.398950274929469,17.111310710789887,38.19354415332701,37.919273793336686,31.064127880587122,35.37728328245443,43.66538686514964,39.820395919023476,24.962600803993517
196,-80.86891079497484,45.09807751992937,69.87286464937674,18.719923524440542,-7.755225832282599,28.093576919296986,67.55440351177657,54.63586941330369,11.84375917116196,-4.327439886181901,16.678026721936227,38.93329265467577,39.53294244130035,32.33552970075963,34.62602272232179,39.798438466321734,32.903560259845385,15.373823815604075
197,-88.28042242673249,39.843346584451524,68.34236500634617,18.54829441150376,-11.650700143045526,20.58365837687248,63.12021738170606,57.29394335244075,16.61573386426003,-4.83290902714073,10.756078124132198,33.610437426744554,38.401442571765905,33.502723245928514,34.84950761795122,36.72250583669101,23.03384205149831,-5.435972162102021
198,-92.84310248158724,41.30934616886313,72.38280926992587,22.208975632054006,-9.334292200666901,21.65488386845448,63.460408038593634,58.107447778620234,19.10860822849416,-1.0721661076700533,13.879140042546247,34.987328859920254,38.806131492574146,33.885465583254884,35.35589876393448,39.24345640036151,33.480175661630255,19.486813572500207
199,-84.24735352674598,44.12668257737311,70.86825032751263,18.904807889989417,-11.918390730695837,21.210283665209555,65.487561742375,62.312986868861046,24.345125420608294,3.0356176660204612,15.163423066142352,34.1444239752158,38.19603804789847,34.47597066794261,35.88373905098998,39.500884814872364,36.94030748186831,30.4676793410986
200,-81.63775605413383,41.18892543515915,68.31024309604425,21.355741630240598,-5.787076066043749,25.798613945294054,65.02039407632326,58.0072474251426,20.238448200900617,2.012445166503389,17.010806422269578,36.8666593741087,40.504383122751925,36.5970405227664,37.72293894017369,37.938400172031486,25.445045166742617,2.7202291489131696
201,-89.92628590698382,36.487449216584366,70.03650489538076,29.150646645960673,1.806008466763833,27.031409323517604,60.39928119000394,52.87585376207165,17.99666470821835,1.679378361238512,16.47109286219781,35.55788006682236,38.675090950745556,34.339040927970764,35.80110088053502,38.36374583466515,30.51350127863925,14.007025515628499
202,-91.09016559589958,38.62198228554662,71.1432406141382,26.625621894602453,-2.79851656467776,23.072652907761608,58.05802166764758,52.01073863982059,18.572862501169787,2.901404289556471,16.310320703882002,32.787211265069104,34.3781709781422,30.187674170218198,32.42809894177951,37.63809622857061,38.18511195830416,36.586293987958975
203,-88.031731748213,39.63406848263207,70.25562559924113,24.92948167453038,-2.489314135228006,27.31046303228023,64.09260149162611,55.08132033327506,16.619460026324674,-0.9506436169378176,14.953133382895524,34.50368926804339,36.59403432516601,31.940481789098367,35.14156304194334,39.72092591501923,31.588386556258946,12.408483091294412
204,-92.53205069665141,46.174632805295175,78.72762184049675,26.956572186227312,-6.206524771194564,24.649849297144552,65.9452405720587,58.2519007487965,17.436971832043064,-0.814272921624589,18.437950722500172,40.981682887718165,41.33447009464651,32.49990840760584,34.22544068934577,39.70322106313056,29.278078276782647,2.544681864564782
205,-90.06239435794178,39.03074631907551,72.19191879303654,28.257447985147824,-1.4179826360353684,24.78732643637297,61.10075518543998,54.79485734861361,18.15603249849216,-0.1708761849006118,14.928060727066526,35.25509663940031,37.587691849538494,30.861857508161435,32.029014624136636,38.59582400196103,37.73789127715277,29.297386317215846
206,-87.93135024750254,39.17067717589675,71.04505434633931,27.349599090931246,-0.5040987457189281,27.382755558008597,63.31891959965495,54.99227535558317,16.977262453580735,-0.9027204664177529,15.459509465359078,36.706540913189244,39.75623752449197,33.75146366706924,34.652359648025325,38.752225492167184,33.15197586408139,18.488321581313233
207,-85.76737748092928,38.88283181231507,71.18643056710073,29.36382049152877,1.8606799386930175,28.00730862415124,61.985500236244114,52.950704898746864,15.335667430574798,-1.6048216386302212,15.930451742070117,38.05768277966666,41.27896496135799,35.30503637237494,36.48441451392203,38.946868098886604,26.069858464290412,-1.8480388193530128
208,-88.7378262473668,45.35136657009233,75.65166582810645,23.691669803240444,-9.542734522254241,21.343595805332367,64.34463799162828,59.59367241683241,20.01889604333576,-0.15845263100135207,16.36711572222827,38.464409743718136,40.30831617415624,32.01711676997214,32.69153690718215,39.27255942378688,36.5960606919507,23.98166607336209
209,-88.42424795107513,42.26998593481802,71.65637561659645,21.450556097918046,-9.812369842140678,21.048001477102062,62.68192371506052,57.59605013684125,19.236161694956916,-0.3798231098364693,14.488463149344739,34.41030201460197,36.219716573942605,29.816304666993144,31.88223353864566,38.88505496801639,37.96543066857412,29.53035820341132
210,-86.6149221941503,38.51101389880697,69.76859832814401,26.641966366354275,-0.6349163423185442,26.443116492995063,59.99101471727979,49.47002678642937,11.693931563392214,-3.482453578191857,15.406234312202669,36.5763331690321,37.6528331562263,30.688860140088167,32.74383563479484,37.19121543910336,26.957987577760854,2.3220926562768436
211,-83.30293709757828,45.50601167991551,71.54862483250947,17.940124584548254,-13.533519239843457,20.266646248027968,63.882825040592145,57.083471036362305,15.871576009284235,-3.349058157758018,15.293003676084927,38.08772741409094,38.97585873804626,29.777357836772968,30.297744142620324,36.138229459579044,30.466462851834834,12.566235378410664
212,-85.48157006316802,41.583503335545345,68.21133632315329,17.58258991375788,-11.391670831135082,22.215026106192262,64.13618797240296,56.740116181261186,16.19188518881929,-3.3522955239139915,13.198161418798403,34.46623535834543,36.416173988500574,29.390664114700417,30.788273254124434,37.73173197171255,37.9684867412342,31.8253660063923
213,-76.09939685418992,37.62599896512432,63.04591096690959,20.768827566352726,-2.438124255827649,27.618468903593406,61.66372793554988,50.59637726846247,12.412929848334798,-3.5775921705653038,13.732009212217111,33.97699321386981,36.078486957271764,30.85254098568895,33.17294029441449,36.91855386681562,27.89742172391222,7.2417220313704505
214,-79.9545099876827,30.35477051710334,59.41738050412921,24.59345861624246,4.153768021616015,30.094165430615313,58.73708116229485,45.80659162039505,8.591118575982462,-5.934771059766202,13.063850883892373,35.19209685614728,37.9354624929224,31.63720091449712,32.86108256155698,36.11784450070183,24.97184926273645,-0.8173314654177916
215,-86.80194918943698,33.42444296194593,62.95369512085048,20.996365718302684,-4.9079371181376485,23.034876713938605,58.33702663167401,50.19977801084561,12.922220458999012,-4.523322991102857,11.874166898485582,32.800036865620456,34.93574732870751,27.98194013574602,29.543267485082342,36.93464788427209,36.51463608086703,27.625252150840446
216,-81.03648228199204,37.757399996374765,64.1484791027872,18.40826672024075,-9.12883410836344,20.08542136794809,57.702619957981966,51.22448557670265,14.80162892943707,-2.496150711052904,13.01469194603628,32.43871750478913,33.82032403352332,27.331028529903442,29.22923387429202,35.27234857785464,31.643473428744553,18.44835135191231
217,-79.30140303067776,32.273626834729285,61.68408764660757,25.41795437245813,2.0530505023468693,25.534645479713042,54.23709226151137,43.8573869010387,9.464230008997541,-4.134207336131087,13.735604400683512,34.11823493955986,35.764330290689465,29.185423069468417,30.48319571464237,33.78236320036017,22.49809800212952,-3.6086327553092747
218,-83.38996207223137,34.43999587023936,64.20602537448994,24.871217525713334,1.16969830212887,28.133609133980976,59.52141915444079,47.90570867230966,10.674019674509815,-3.6896222164992527,15.515910832653004,36.68400281431,37.41014035213014,29.700787271117683,31.715799157392993,38.87159543870717,35.34572747534475,20.517651405020867
219,-79.19344475870489,42.15448610368886,68.48042310693526,22.06223768198637,-3.932181559708626,27.497814253144313,64.24743252861337,54.09156165832784,15.604269522437038,0.15462620286191253,18.717967843445866,39.011469059511434,39.18565487671001,31.40658504726612,32.72752202135447,39.06617844158598,37.66932039376484,29.051203446881225
220,-74.01505123959902,37.62136004952742,66.81469275049028,30.364340165886492,7.079244619699093,30.36435670717218,58.11462629634461,46.80882359281978,12.88963836979268,1.2313996120420556,20.95948164186448,41.73059694395347,42.3308135609572,34.06701433859472,33.69164080655569,36.05723401813236,25.459552313413738,1.6022043063115134
221,-84.35727528741033,31.881620167205885,65.70825063748826,32.51174220500422,9.12051806060736,29.861006751905865,55.976924087508735,45.30062470351627,11.991867276611552,-1.1952075363858807,16.35093779781993,37.25820900085704,40.38103573614047,34.08549373603055,33.488095833607645,35.81244185290115,29.16106310397235,13.732696372432606
222,-82.89569126784976,32.27637607409433,62.879614905668795,26.30997463687601,2.4648580918335345,25.933463259583814,55.71275088514309,47.60996163938811,14.84924950538327,-0.18433079289148976,14.020364236905351,32.65614929068607,36.236134508873306,31.437440026256873,31.105588602813675,34.689455936142004,35.83947105525638,35.82094636450867
223,-75.1442651318348,35.8678943946651,64.73451887424088,28.694723264507225,6.006551944014088,29.37855519908932,57.091825226579395,46.35745983589999,13.039660082066586,0.7364323774798373,19.050931421521945,39.86032944613526,42.45772301808556,35.362196846569155,33.27626348306056,34.300813244705814,28.727414562965773,17.166762158444065
224,-68.01259701471895,39.268295962588844,66.68086353486109,31.124372356554126,9.069582356169844,32.004073331805984,58.3001930896019,46.01371464463925,12.000008582155164,0.5880803239721131,21.20304277029721,44.31147438183568,47.54090690354403,39.039479811711956,34.57589909277252,33.22903053059714,25.13338933432161,10.445595203301215
225,-71.45258419904606,35.66111945927049,62.593751643137495,27.680151144382407,7.430594299092852,31.40417161138753,57.0523311199193,44.036041980079126,10.470651994417585,-0.8142276976768169,17.95534188434925,38.81919073185074,42.10108840880916,35.40845582871602,32.20565946933909,33.300319553826306,34.40802202435589,36.95698297982584
226,-74.5272949414277,33.73571146688547,62.0306866369249,28.454681535466413,8.981972305899406,32.8375222245189,57.802906765289904,44.269780293070205,10.573038658442114,-1.0198731126949008,16.95895228448395,37.37776312420108,41.59430415299402,36.74845059622118,34.3439759742866,33.573577237167584,30.104150526406517,26.374615236363773
227,-67.64006216560277,32.44449669996045,58.940582731915924,28.0001617858122,10.207068028790033,33.27500317494593,57.25114481078333,43.54628340563965,9.362205210796382,-3.025284312805667,15.373304559806465,37.381499104926874,42.604892153338135,37.965636887538075,36.02016261154432,33.80758671136862,21.669382309704087,1.0234086351270495
228,-74.23470847540483,33.009940117967986,58.72013487607135,21.744969370324696,1.1363070753909312,28.123700736805244,58.35118796428575,47.56270962163822,11.992608362248372,-3.453482618933756,12.547934519469383,33.59287080328514,39.08092971404109,35.02317560612919,33.48315835071518,33.52320560548252,29.214061254932783,22.46859962272456
229,-75.61734598276132,28.36671862386176,55.6132334775668,23.410664741314644,4.843982426438805,29.0474710680726,56.030852003971056,45.85344028318326,13.009889395275016,-2.42381744384119,10.184725291230594,28.791565706823935,35.786148754335834,34.67007371036031,33.61302462702954,32.48050553353637,29.809295471664377,28.938971187352816
230,-70.38981812494885,38.15586441556664,62.86940257031356,24.112304931867335,3.947090401197305,32.95661355542782,63.53305260522071,50.96601251091797,14.405705910138321,0.12290340545741835,17.34959397163178,38.04583402875064,43.017100730620065,39.71095399095104,38.487923763424696,35.35540856143636,23.410750430157915,6.031681509887972
231,-64.93260861983205,37.38081448576051,60.448896561208656,23.574775062003,4.3941087927476765,31.914699322729913,60.908473408072545,48.643906207557926,13.437003962932435,0.15723796727522138,18.070500688932864,39.33387976726885,43.90995581764324,38.92591370419891,36.46005283928287,34.84499905364897,27.80130993427865,17.466454359543494
232,-70.8360378659483,30.01260593271044,57.37034435315734,27.79158374278288,10.321793256126329,31.85684934159648,54.99611629289412,44.0968350713573,14.326928705390943,2.221406237090645,15.340277468402533,32.40494157253752,38.22878224010814,36.701341651741856,34.911679436874024,33.53383599233987,33.79186783185289,39.51812057804657
233,-72.62227451902852,28.29388788411757,58.04282956181001,31.936287203989835,15.917900778341291,35.468009344795824,54.82339570473513,41.21650581159375,11.407583405121175,1.4019704115457572,17.03287324021035,35.52975757290211,41.33034397723739,38.85712499667268,35.43244249450987,30.624308990783216,23.92477826281595,19.147418568771684
234,-64.21476626996893,28.80118862584487,53.67593591750223,25.929089892643958,10.62463048114392,32.57562002568169,54.80414880652116,42.480974805245744,11.539115335661629,-0.162852555606091,15.476241440558567,35.29627425134754,41.605808375176295,38.39774928102109,34.480068686228236,29.437510123046927,20.3323567730949,9.875455110223367
235,-67.76334606900117,34.2038960889986,56.61801699447708,18.667273295632295,-1.9425211976731176,25.180568383525898,56.4899659428072,48.41298881842298,15.643255886955842,0.5251619277228974,14.178096597873436,32.8912153224549,38.00930990723557,34.17653891843208,31.630469605916726,31.434593069927725,32.04248603652299,35.874638463296826
236,-65.5140996750056,25.447302605646403,49.78577042374285,22.052362354880863,5.473707776542655,25.984563781786665,49.594381230938616,41.344913387482904,12.97798677062841,-0.7180463443094124,10.392731660518866,27.50594763682245,34.33872813218919,32.79745579925847,30.15734480265163,27.578414244529654,24.742964342586514,24.361677689839144
237,-64.88955936026014,27.102761317478908,51.359791545605574,22.756611998595883,6.473211528324376,28.82381070598286,53.288539769824,42.70802482129774,10.542602830540222,-4.360246156003341,9.39335987264732,29.920545103365136,37.91309119959163,36.09212594951017,33.64956627283095,29.653446487969585,18.864414555494996,3.414520057678027
238,-68.2482325633801,33.10808114579735,56.486034084669605,21.01080163534964,2.9552627893766243,30.778708562075217,59.84785326358918,47.59112519933789,11.588497089134794,-3.3708117511284006,13.32431659048393,34.95810553053207,40.77871753113668,36.37459873319175,33.800853671449595,33.34803886469161,30.669797325540856,27.629231268753774
239,-64.87088304299276,31.042292479628365,54.53526106187616,24.895641338438843,12.28382982051233,39.18223591285788,62.112625104736146,45.40798225724004,10.579660371371954,-1.0913532243875528,15.975661228751855,35.72657030667099,41.486072869459456,39.03732239374754,36.815912079688985,34.81455649030721,33.28470130275598,36.12712682770286
240,-60.90198443559499,25.543645757390518,51.448464199188905,31.439435986076663,22.75667018425363,43.75553034442004,58.454678819293704,38.56874184369336,5.351013515688356,-3.511217205553495,16.09950134692748,37.862426121364784,44.2695349633781,41.358040646821664,38.67451136966281,33.95429835156634,21.752359141114255,4.7195295708131715
241,-64.6562031689294,22.92633869039538,47.32463470905715,23.30184413926655,11.646061587046157,34.873406399269854,56.71826203251507,43.00813054138861,9.44039979271024,-5.175563001887871,9.308811814609324,30.07989743349564,37.76361063372563,35.68354638439604,33.8627879149346,31.944842137709102,24.72730231793275,13.866717393039698
242,-65.86988435066814,28.315144837723572,51.30748603419952,20.416886375536993,5.001724293994717,31.349867058322946,59.200657518891816,49.081737145568745,15.494870042323186,-1.1226373892772143,10.747312702776183,29.193135636623804,35.85406402591343,34.267852815097,33.87030186835363,35.08807852975249,35.26205869616257,36.616896937126555
243,-60.25889201990765,26.081015825156182,50.124246130015145,26.28809243855711,14.381913314179618,36.50459054397323,57.317568752085904,44.05213079107426,12.334127700914255,-1.0648932853790096,12.212103951743709,30.221286662369447,36.41921651980017,35.706387937186484,36.61339142244172,35.77087505589459,26.216128098700207,10.326934782572266
244,-62.85674088614051,34.163165645161385,58.53394941762644,26.92514758492018,10.444632682512335,36.70144667429771,64.06383779064221,51.423047381330846,15.056316267395472,-0.9567756999010733,14.931964998288613,36.3489252037553,42.178462453247455,38.99618618825988,39.50385668742688,39.80557302375822,28.37742619836252,6.285135136837583
245,-69.32182737826223,39.135763782621574,63.91668058933569,24.954543192516905,3.796374512403418,31.774716830799694,62.42211227290263,50.63157600935432,14.196636630370474,-0.7178949750305754,16.094621658183794,36.42724072023392,39.90212571034328,34.617426851287846,34.20475515901553,37.616585377987946,38.13677750693026,37.195987026204605
246,-59.19931789963037,38.20568412035281,58.48897101836703,20.74560108887127,1.6386180411731839,30.260540608615447,61.69785207145674,51.83865033438095,16.65428897527305,0.500687964605032,14.643411621169479,33.43075922166977,37.49007674005459,33.83211928542572,34.40062511262513,36.60735250194806,32.44111720942396,23.486207854819618
247,-56.90701206320026,26.63838986062213,50.44005565348674,27.732935052784416,15.818463128614162,36.34635529325707,55.34367177479829,40.99372794018741,9.24956789240708,-2.5184280407095416,13.85625310068424,34.110594791020006,39.35409502620199,35.49506790050616,34.328207970652514,33.2097014886945,22.28321997569156,2.1758078486362797
248,-57.71702961118137,19.48964956518086,44.65951606624171,28.57706132068676,19.363422761877224,35.60248091606727,49.73125076817831,35.888259600463215,7.654246028924468,-3.5167519208453224,9.875484023424406,28.016544229443706,34.312158187624526,32.1032760275637,30.997761336919122,31.186657417653596,27.699292354235194,21.431145300222454
249,-56.288295602194864,28.674720670127737,49.64813472126811,22.31155790416108,8.977362457970749,32.37253263683295,55.51675736104905,43.99837759727378,13.172385300946038,0.054955322027641425,12.859194346552302,29.552654429518885,34.032113110220614,31.80223211281618,32.19084584983951,33.54100686829203,30.845429521281538,26.04468979764058
250,-50.64736205713508,28.230431753364616,47.17520385043911,20.778746757098855,8.543482138769518,32.4330496418636,56.00275506014527,44.32915540346936,12.142032912606185,-2.069785890816019,12.06069420754898,31.88153241713651,38.24137868864782,35.05538976388648,32.50476107760243,28.74968076464514,16.161550750799925,-4.07635249927843
251,-58.7249580850713,28.482950788909005,50.02178374179667,20.88751373419988,5.494430800504485,29.425395043654763,55.19393487268795,44.632430358723774,11.581381521588883,-3.307059921641509,11.916320159476756,33.09815053047933,38.737486269238545,33.15178938387063,29.461646697710503,27.956844575952477,20.74977287063379,7.766735997823337
252,-63.89450521661876,27.79205981066656,50.94328291892526,21.802741470901235,6.314211562824996,29.206120875871402,52.60092016858384,41.00065648328669,10.370553177470285,-1.3681661738004567,13.308307291570918,30.676409131170356,33.91039035477246,29.40826100384334,28.076210133802647,29.607328010583252,29.71623816500437,29.90347447974571
253,-63.96189677318183,26.660851861867876,51.953507582504805,26.671552440459596,12.794264267408604,33.16726875848559,51.88272206855591,36.993776451024665,6.412380050649692,-2.733269620339376,14.700458571712062,33.12998356185184,35.88954263808538,30.994520289961567,29.77898625464724,29.23776418652889,21.29402904825436,7.403425669917768
254,-69.55390293411169,24.787492524378777,52.57336219494761,27.098672957828565,10.949478172497564,30.174932427234243,50.68899757460034,38.00771364365057,6.668672344625565,-5.2238053789025365,11.387431829883676,31.874995781846373,36.56251733608181,31.477032341394416,29.35246021679532,28.32688879437824,18.743796190502152,0.9885496822601237
255,-71.75205841494764,25.523575193064136,53.68069640056922,26.897136221712202,9.903699033727976,29.660454741622637,51.48035511206145,39.96128419982826,9.021371979533697,-3.5260810138608845,11.774540841212415,31.36463929724484,36.0344128507698,30.90999331471027,28.390229996540942,29.38005857946211,28.48566605834536,26.313601456744816
256,-64.06806870427754,23.59168142379536,46.97213519890641,20.412620597690562,5.636903686231998,27.333186059520045,50.78775694128652,40.94589222283333,10.703034244996038,-3.3313084818773135,9.251151769179039,27.651449514084568,33.97599620110235,31.31134894568002,28.91221601626817,26.86576700479248,21.266417192211097,13.779988216694903
257,-66.30720012074485,21.90869839759868,48.912595215349306,26.66248022391783,12.597950231149497,30.907243252755507,50.15283168375352,37.887344027101534,7.126913722092245,-5.951384012333935,8.91649012902961,29.778931727432806,37.02904162504584,33.81205516467277,30.68688461748732,26.703194903291074,14.412341380113453,-5.24634369327697
258,-67.91894458813844,22.616519215269015,48.850785047721764,23.83477987478603,8.128926824167785,27.32876780755421,48.76555980091431,38.18801802237197,7.9655823661890865,-5.501701914696498,8.283858758890503,27.60574531287913,33.39834906447054,29.5400863137321,27.51265921785055,27.851607365331198,24.652155775067804,18.417181439778
259,-62.62579866175259,20.19679625085542,41.747615459776405,16.87165524861673,4.816217908594474,27.368056624536564,49.35214987894522,37.62784444109936,6.770925421827355,-6.8877461184052615,5.802625613261465,23.61697011390757,29.294976060366327,26.611334386323474,25.197191868805632,25.71017343892969,24.950316952539854,24.356391091724767
260,-56.09234670299176,14.036893210138096,36.815956157011485,22.39541049116757,15.134559765400116,31.451043782589473,44.74660408754139,30.798217534138484,3.1806264794499124,-7.705866879169154,5.37976264608377,23.450429625579165,30.516665720098846,29.349270433572872,28.075603771466536,25.183649575045177,14.459140128614058,-2.828453308340736
261,-65.91495048327589,23.16116038862862,46.83991125556269,20.242624884992328,6.028795441887425,27.450707862341368,47.92708073273308,33.98039544334382,2.7125603992814353,-7.774299564252015,9.289332007062765,28.604273084361395,32.30669763233715,27.539999843102102,26.25338501005619,26.686726749757145,21.26773279853137,10.955822560117564
262,-67.54069926993212,25.216222421096553,48.76452057613094,19.242818537721924,2.6365366137817308,24.024389342210803,46.446912905182266,35.216713455519994,5.840340697998901,-5.275385947224807,8.659837313855109,24.98240220782443,28.255321573652125,24.707867782225623,24.116013783687226,26.2545792585062,28.326814406273478,32.3671005591023
263,-60.52559859026262,22.326847081363077,44.60665902444525,20.903898971395133,9.476420051809429,30.764363681872922,49.51934519795778,34.86509218612639,4.1138748612511655,-6.359851212735203,9.68155657940321,28.42822839992039,33.00782871798627,29.284053642129916,27.372884680874627,25.650074051328108,18.188104304958845,6.58918059610828
264,-61.037191415342164,21.30517042999147,46.31070518502029,26.83669570377548,16.72326431002717,34.90389203067775,49.07948345518138,32.08538069127345,2.187949535538571,-5.790561613527743,12.459908670725559,32.06077127292713,36.18919492862307,31.70490616813661,29.55012656411312,27.29979736086466,17.09473478377169,0.1241437123020757
265,-67.41928944285455,20.236353048782373,46.00545211959225,24.354479696717757,13.207720866179647,32.70530007152072,48.60475211271852,32.284868891108744,2.493918366607709,-5.4452836503027635,12.190222970733808,30.22873701435079,32.73592609046771,27.568554041049435,26.359711537736562,28.445929811065295,28.61270089731241,27.973829161802012
266,-64.91062186056658,24.69514666316993,51.13297873181884,28.473405370312634,15.739505120238409,34.34423106499823,50.20343055795285,34.038094339353854,4.27411813545421,-3.457222276947576,14.748218286814307,33.32012552946374,35.89447267480806,30.39622265320272,28.47308094625311,28.560341797265195,24.13740442337832,16.422149173383882
267,-64.44596890219437,31.7506732813829,55.40122280333758,24.473293395553505,9.773836741461825,35.15596016056078,56.667714104692955,37.75017487281958,2.12497558673744,-5.505517161933882,18.48547178754546,40.56340377313866,40.93769466678811,32.623442796303195,31.683402368951914,32.27491241485546,19.738960324940496,-5.5866125814167775
268,-69.95257224813552,25.684362362435742,52.362404694062896,26.69852383303058,14.065915533651019,36.22086326131459,53.28441134678693,33.332059532641466,-0.44180090460712407,-7.154340182885186,15.464312817975129,36.13323720615832,36.8130737371063,29.41695299444788,29.039160063648072,32.45389289729298,29.257382965249857,19.966746037235517
269,-74.77071164678019,22.32214113921342,54.78825967217407,35.71912733710054,23.14862244982545,38.58501887596392,50.01733105306705,31.08736754654404,1.631783901161399,-3.8457432635218245,16.254338729034153,35.04809004097234,36.67578013441295,30.462715038364514,29.035821244355695,31.033697705564467,29.877526425831235,26.652247114970542
270,-60.93933130466233,26.531531254914384,51.409355259446244,28.658899890741814,18.03493271913892,39.19611865482786,54.92213125559908,35.615313005213125,3.28730380690204,-3.367976847163666,18.069940985109522,38.20056202493085,39.82589796088571,33.768854180052024,33.15219926962007,32.62493790758052,20.04232028980415,-3.615095768050929
271,-62.0423349694113,27.688916429777954,52.63856923115051,28.268756144511464,16.398585834551184,37.96235552437211,55.11378459419753,36.67158425806556,3.835303261043535,-4.006461874609863,16.862245136204734,37.425547306057325,39.558777446270504,33.11239489350809,31.792758878580642,32.495332666498214,25.18788321607339,10.562100997867859
272,-61.57528953448384,29.482205531850017,51.85952992166144,22.56531487982805,7.670387555070099,30.309627080848223,51.534041490119286,37.63258900760721,7.317786485740122,-1.5963196385944503,15.461600602564115,32.76762793840154,34.41599002908303,28.578782893564703,26.625846572194916,28.06011318856095,28.938885089600138,30.92105194172081
273,-54.77081228684148,25.269340973405793,46.7814700981138,23.63825816891234,11.858483967853624,31.2987353943555,48.75285784722105,35.33637336584411,7.486066059899237,-1.2891097938790137,13.830217352112511,30.48464666554346,33.88089107210872,30.07014162185733,27.967443198840066,25.523598786681603,17.554785787908695,6.026738075502438
274,-54.94832893088969,21.46187727021098,43.73896137117514,24.390776022712792,14.723747591737773,32.77475146238444,47.79932362051062,33.471526788307486,5.981438527416886,-2.5397096961408443,12.558319899538112,29.502378410487694,33.47184303502154,30.125946424658757,28.324296461377568,25.769838114289666,16.42880678001792,2.013034540293431
275,-61.985924049115035,21.905451183096226,46.38218271580002,25.15337590889474,13.563491275294142,31.355644466363703,46.99076048660094,33.63539015604791,7.384368347705043,-0.9454479360963722,11.963081122977892,25.727078257797896,28.58515766361904,26.949427331590893,27.920356234375546,29.287152083462487,28.245706474796012,27.67954206223654
276,-60.13376433665009,31.532542203567044,52.433438153036185,20.2196643013568,3.707104179769947,27.38682891365091,51.15282934226697,39.61035651473586,10.57659564834157,1.1647299104199087,15.597009288633002,29.619834865673607,30.221830612944288,26.730944947691576,27.95542570989161,29.215280731306912,24.40382288538953,16.477910508895533
277,-56.10890542782684,27.030731845739506,49.73429822338889,25.600150923103214,12.328350537184487,31.39683293039604,49.46136320749968,36.48544101928108,8.560946170147282,-0.18638871835517953,15.224033448445175,31.773131613959308,34.58592655044487,30.797344289547148,29.715704517448895,27.217362515135804,15.177140954314117,-4.505672417161281
278,-68.08177698454341,19.09335110431836,49.74337313311847,33.824007209179925,21.00687924240422,32.02700690806826,42.2225660721413,28.885278492227336,5.743246975195262,-0.29794551310624023,13.290676257837871,27.06134884912467,29.30888145426215,26.417120717026155,26.346796500094058,26.787187932786725,22.962338801556566,16.89849611058066
279,-65.94638929763599,25.02350036152504,53.231002057349755,31.268087891414513,15.874375901431813,29.40506563241543,42.60262750140233,29.730280631677143,6.489159254493511,1.8832710336553193,16.86148673413535,29.735288628567044,29.5621940245241,24.921200467228296,24.44006920474641,25.68552389973172,24.699258395931995,23.799570884059865
280,-56.4967875625593,21.08178377290726,46.07431684136103,28.41493979150947,15.837277942848239,27.510540816010735,38.27265946291179,25.56246380875046,3.4748897572764568,-0.9266798044687669,14.342567956339884,28.7692264762471,30.13120099149925,25.450382127111087,23.366394362186686,20.59124672671466,10.091398886324491,-6.696355303875586
281,-57.20101058150292,17.606228418645014,41.12641726525744,22.984038654206802,9.99680994973696,22.003426130094837,34.959954135299874,25.006860497185855,3.2481130519126586,-3.8900205515619395,8.546028206342273,22.826825214224055,25.899227459390914,22.068822912609036,19.50859743492609,17.581868914304323,11.938663747638705,3.678053638659024
282,-60.08931106627732,24.177340545810633,46.151179693466915,19.832458543248926,3.7486021099439406,20.406132714053285,38.17716582266979,28.162443226749073,4.815687189365872,-1.4314076302499588,12.558936397887052,25.723966088340145,25.955159012663245,20.689063491729573,19.040766815266778,20.34179739033371,21.8824930536651,25.408177586739573
283,-53.63912426445385,20.335201346607533,43.20159095238862,25.851810284433657,14.980819288042305,27.43718508827654,37.18739507052644,23.316644609574144,1.643380391380051,-1.3775409297802799,14.527225389747429,28.6423485358324,29.736905612298198,24.809456257146564,21.835201311289385,18.825896291112254,11.695330736176059,2.358460793732119
284,-50.11401470799276,21.799911723956253,43.5686157361713,26.146073489368625,15.942533826279009,29.167824360357088,38.785955609394044,23.494507812956506,0.3927392856957835,-2.1261965141874293,16.238657963917806,32.34440245940369,32.98126057796251,26.176245024938144,22.252285214131053,19.211014633877515,10.498175248308534,-3.0266396177514427
285,-53.624689776920476,10.434875065111097,34.072752630395385,25.643726987887263,20.015406893159476,28.731874890739068,32.239599848450474,17.202339108271527,-1.6181173839383356,-3.6022086464999683,10.095370719615856,22.487085029662246,24.538281634343384,21.141463023084086,18.541420509315458,17.53553518887055,18.470036384222805,23.235003040710353
286,-51.075571249807545,12.044734180782779,35.00426360002911,26.06393364578674,19.911773667639956,27.890040429276333,30.647404816459623,15.594175297141929,-2.0974208355983377,-2.5905374315367533,11.677984319177316,23.463056959466538,24.666196654141153,20.876712860282648,17.819564056345243,15.174817733922639,12.657746937370899,12.448025003425956
287,-42.76069051488064,16.65017396185902,34.79822593835589,21.241188820935157,14.360853230538437,26.364456674966473,33.61544194659903,18.866815808649662,-1.9531399688229119,-4.129284399713284,12.250919353965404,27.052688823511108,28.718044025543332,23.493960523937243,19.50734774484323,15.088437829000716,5.352016939466405,-8.557404533446803
288,-48.30915441480454,18.443587460433665,36.47306062974977,18.000960900651492,9.056512875468691,24.38781076976734,36.0326500789611,22.415792555893635,-0.23007632317282728,-4.628558845928777,10.393796258344615,24.68456557061426,26.504638533790054,21.527830425054738,17.613894800860177,15.380132504599162,14.046338635121721,15.333768618005678
289,-51.911396839234314,10.438394861051403,33.952922099094934,27.23132992077334,23.39245563866419,31.556874420078824,31.96919240347888,14.11548537343838,-4.572729640108767,-4.180283494831972,11.341997922286968,23.888026117047552,25.64172193679731,22.265865499552685,19.10113763603395,16.38936414859253,15.467846582053696,18.958865238546686
290,-45.6408784567735,14.086823416538689,33.380166299752645,21.652608167520288,15.815654986958817,26.737250511768334,31.38703661272736,14.78549849712562,-5.694011771114845,-6.316916637765433,10.88122984610174,25.323969712755932,26.618587781767214,21.767103137456207,18.332937100473924,14.012714070600243,4.217095744294916,-9.471513710489477
291,-49.482202933072394,22.568421191877,39.462521165909706,14.757561484557334,1.9374645484645308,19.685765054586085,36.084483778668435,23.854027369519706,-0.812517160262402,-6.339381185045232,10.127855228917348,25.56823960001758,26.153915357080674,19.916049530662473,17.42584433114731,16.738654328802617,11.357015526028585,2.0444270577416255
292,-48.69848692587058,19.27260170283942,33.408069204796355,9.179329651172845,-0.17245646647525256,20.967946638177253,37.97355428006433,24.146701740546533,-1.9027497425356246,-7.736727766662109,8.499449656404572,23.284999157536685,23.433720888194046,17.21863996370316,15.122763488273824,16.869152855061728,18.97153423465702,22.373427570392472
293,-49.24447558444467,13.08833111226044,31.566546786188198,16.78664697780282,9.431112812836787,22.092147435097633,30.018450324572,15.552431611815576,-5.156575785285927,-7.968980007942778,6.369951607332766,18.90025988099391,20.29230399453567,17.167561165843207,15.854887875031524,13.741765306434296,7.290258840969871,-1.3417694458263096
294,-47.163174045889825,16.120434481587232,31.646013953969973,12.253361701084692,4.666237937176091,22.74697760943206,35.944937645691724,21.11840421584186,-3.9647342898613176,-9.335880982963207,6.4490249616663124,21.184884915613722,22.610571420981653,18.818785280913175,18.632939313142145,17.84750109139157,8.606408764744993,-7.7341549356037715
295,-52.806063482095816,12.672650441937876,30.763940395187237,14.460983924115325,8.647487119521251,25.49248066176825,35.73108451870166,19.394547062378322,-4.7728602671358225,-9.189542231495764,5.5388289201378225,18.488922470336806,19.682816589189372,16.862797715790958,17.42244520638833,19.270849872075853,19.52392772648226,20.328643368471383
296,-51.64034041425778,17.56593659343325,34.308850766629995,13.617896670740311,6.547566802506634,26.699004998792574,40.21289582143587,23.730036654666456,-2.0762414263543048,-6.6002867775169145,9.059895969038303,21.851937529067385,21.984437547319516,18.97228642457519,19.968745590557262,20.144204883768378,14.427562338000484,5.67364380269415
297,-49.96150342497003,10.984121639716564,30.590387379829377,18.277919953426778,12.564828958454411,25.79241310475711,33.88077304967949,18.764639031961476,-3.8022523703638296,-8.256437058806666,6.294642292421267,20.140415923709245,22.166580904235285,19.34845632002563,19.221560914822042,16.823171262071494,3.483182762376146,-19.444193665289514
298,-56.74803524066767,17.679844983063294,36.78004382036724,14.04619891242213,2.692059217150348,21.10199719433699,37.318237512727826,24.305721728905585,-1.4242893876588059,-8.147720738129655,6.947538502714754,21.030089587861962,21.168600041863698,16.523360198990428,17.538503202359095,20.210433846440967,15.756523951759153,4.981648990154316
299,-52.12291378912945,11.55752626024687,30.47669762345117,15.492039138191862,8.727998842269784,24.03053125581939,35.60082782115476,22.685210754095124,-0.2681924188602887,-7.128103862158623,4.620818952995318,16.756335888401836,18.504930353703728,16.14732537556768,17.231691282340385,19.095204474429927,16.235012413127965,9.9516571379715
300,-43.48784260982912,13.1759084093772,31.01758291990317,19.696289646184052,15.963783232369222,30.005703491419574,37.031483420189964,20.193704920330244,-2.9538426175475507,-6.385543311058923,9.41213336088201,23.10563520072148,23.741201187643078,20.20391135707261,21.302659307254768,20.801775508148985,7.507765892561674,-17.758314248206414
301,-47.1136843957387,17.466193902688293,34.20881242737746,15.989444121180378,9.410216630388657,27.657066921922436,39.605690382997146,22.85865259521196,-2.9651048392139097,-7.080964604039071,10.2565551475765,24.40335871962881,23.28216553596621,18.123597194424445,19.962549964228376,22.63793509043386,14.311210714828757,-4.537794952323247
302,-48.420991961803836,10.1620092253804,29.402225238169322,18.69562422771079,13.728721777584713,25.26165235067098,31.667204128239973,18.119853046051396,-0.7494064633450148,-4.141174151419703,6.701334379182219,15.594481276444501,15.977855137781374,15.011693259811812,17.955179623919324,21.03665382384289,20.193554364336862,17.56260648240928
303,-40.72114094441102,13.659817279318165,29.9174733923391,18.19362473929122,14.36483669434086,27.5562868095813,34.03594576860986,19.209786234474,-0.08478737659881233,-2.271439983353761,9.627166273973954,18.074045213993177,17.857292385809714,17.989248841903844,22.485743675223098,23.27482943628922,12.748084082610504,-6.0371489890139785
304,-35.50499050712119,18.472697407596986,30.78412709243458,14.17496589428583,10.205445259100928,28.421209599624174,39.24843971420642,23.693831624635337,0.8267334089143147,-2.8587011680321828,10.82504322433238,21.61842944550069,22.124273604195764,21.782525726748357,25.62852426860614,25.296996067133193,12.292118915032285,-10.286055546364958
305,-38.06877016689297,13.536846053562998,26.517315252686082,12.72287389152617,9.488995209005928,25.296121069050482,34.563386289221455,21.367514714934558,1.9062356221985397,-2.3972463997385782,6.680141717216123,14.141010366125803,15.720813895018003,17.926698875153427,22.382961288778503,23.846402617307476,20.878917315771464,17.64104188354935
306,-35.56544865801789,6.190748870257068,22.45308041297897,20.759995304615103,22.936383162193266,31.090945409682018,29.37533770486292,13.622391544417946,-0.6440115943654569,-1.3716327927903424,5.579020533670087,10.451243139767952,14.080906189821333,20.313239432718536,24.850082641650342,21.630422499545038,13.344250065855128,6.32402095757711
307,-32.79331362505782,16.7718271873944,31.13667752591363,19.82090191529382,16.071732946247074,28.13501968906607,33.952695594171125,20.168811993396375,2.204552850441153,-0.4224761289682749,9.977509544530944,18.799994220927932,21.61129804618739,24.096903635156618,26.773260832863894,22.571569762534637,7.969807550410793,-12.478731386916678
308,-35.679067987561865,17.968243952936383,29.888394759265548,10.78753356607333,1.5245385191334955,16.71583153444695,32.48241403765448,26.856233786866753,8.788588041929184,-0.08623912935462512,5.044663828679466,13.122384604886406,17.06085681418896,19.17909248399594,21.12930861890177,20.209481659783055,15.806968902056791,11.268921590836833
309,-35.86754684972961,15.35476567843841,25.96921670548456,7.952737292053078,1.2874898616368156,17.742351503113422,32.19122790917642,24.815596754223158,6.773555302809327,-1.3571824024220533,3.2154011489665977,10.351878844283087,15.170594256138875,18.944969741556037,20.252995074567508,17.24961279268555,14.36771772728962,16.6840140381216
310,-33.405184026646765,7.177697424982959,21.222092788455548,16.239264422928922,16.264625507741712,25.575518250291783,27.178222160536468,13.166225144979014,-2.481484501545089,-4.745000556393559,3.8920242875771938,12.438658993767449,17.355073358365047,20.802450113544776,21.031609048088292,14.228386909518527,1.9872610675008406,-10.847258025352193
311,-36.7984448075937,1.987603093053433,17.21146106705455,15.236832297014614,16.269865701545797,23.691043617024935,23.43717930336571,9.659667776548705,-5.124632201309487,-7.815233119617559,-0.014514553694403388,9.239810532519867,15.89086569793802,19.643537913446888,18.337016190168857,11.417633484848652,4.179883011895155,1.260257357648461
312,-36.23009594632278,8.157733753437773,18.571632282903483,6.383001866314832,4.537933564573871,19.559912173985207,28.388221755542503,17.238909910866532,0.08848074543483218,-4.970496116981786,1.386152716767302,8.558811949966056,13.177082945178014,17.012509010247676,18.11898928881086,15.274080546377355,14.642929292427713,21.49447487999029
313,-24.43327138363508,12.293381394302981,18.282621247891292,5.291923774542021,4.6927876657671455,20.672533198357495,29.020961479907125,17.04719517966238,0.42322219201223826,-2.9544795528007546,4.422956207017128,11.205670879477706,15.29870031854307,19.51632372834881,20.547088471053016,14.16272250267074,4.42753581286019,-2.615213730458376
314,-31.583293557311052,5.7266201865986135,16.705074995038384,9.937859780979046,10.535359610838757,22.334969568502792,26.432940124145265,13.28589683050108,-3.1122065027544723,-6.509454469470527,1.625624695578987,10.343402149435512,15.583742656978313,19.19384573310895,19.612318299104125,13.462037071584076,2.6058882089768685,-8.265304934008698
315,-37.267214881218244,18.051408450813284,27.274159452060722,4.965818707623067,-2.3679617722095925,17.512246666502477,33.396445897600074,22.399702332842683,0.6379391369794141,-5.427487228043464,5.132608431935361,14.90816398622799,16.14408407477271,15.11041495062622,16.165937802526688,16.737573235827746,16.148575657847562,17.571611217122662
316,-22.524827465670473,17.853649443127054,20.93709565120499,0.5494781976445225,-3.77767158354938,16.263530698548188,31.815781426813412,22.930730458040056,3.845246772420954,-2.9691617468466216,3.7194808889953195,11.3633414813773,14.954038313819556,17.33710041314654,17.788084314486586,13.513320671163253,7.675641312071839,5.17006878581984
317,-29.738047049890564,6.920854792963549,20.05363567276233,16.554087198233407,17.795552087133395,26.722840302081543,27.007596562722345,11.74426393257365,-4.453287451181642,-5.849084126379917,5.241711012528228,16.26548809492201,21.387905609892098,22.41247012719224,19.650944140639616,11.1258607838408,-1.8679868445312542,-15.584735945191307
318,-37.01750699373405,7.903864277175249,22.245286465431978,15.115559447233368,14.449536665811394,25.154475064232095,27.40300351903078,11.80359793880432,-5.363110310835716,-6.305490259055962,5.652721402701536,15.8812735687581,18.75550942431118,18.225218021840522,16.4529801989766,12.781070034265575,9.857397637993559,11.098638875028739
319,-33.87504361258853,12.879328027979927,25.406525533815245,14.151249685910674,11.456316904740104,23.9707214856369,29.324886264937565,15.185787822300885,-2.2094131679558835,-3.4699155006345466,8.537633582395964,18.347262774509943,20.001281652378506,18.227637257026434,16.073799376336208,13.190081533940747,12.207739155859143,16.311141505082936
320,-24.857181208715836,14.053874600682237,25.701080263178756,18.09918661440363,17.126712585634603,27.236877021329697,29.010916838758263,13.079779701450374,-3.9135878840838885,-3.1830310189896185,11.517631759656648,22.87045536076917,23.706350802881555,20.48865918106981,18.283607588157377,13.542542038076641,1.874643079156869,-14.834182918766611
321,-30.65365079266931,10.136739356320879,23.81893693230552,17.13150142026428,15.061984579875565,23.91723175976762,26.688902430864108,13.196599385169094,-2.9658727526014728,-3.9115462846483946,8.699358749437954,19.145222715893293,19.722833122881305,16.56974295428617,15.92319053202517,14.709058836960835,7.083516259036327,-6.141052538652778
322,-28.42594091027391,6.884466039082515,17.308139500434603,11.133676776183206,12.190925837002244,23.923497743933105,27.816209461417507,14.488762378882544,-1.7272371406807219,-3.7538701750500807,6.493178649157101,15.335222605075996,16.798530507298185,15.352117506853109,14.786102489090135,14.150642613371115,13.167307102852522,13.709105129993775
323,-22.330243354919485,11.992915314587151,19.397104738658665,9.392695231939157,9.605800103261418,24.207307799690632,30.93751671547875,17.255079967296677,-1.1217941365797794,-3.794262992851568,7.838909936473185,17.85744017984591,19.20677542891476,17.724063029526068,17.64599555911132,14.728342342243186,4.254738228150294,-11.77516211317584
324,-20.77414259985341,14.842973436766872,22.07521364504981,11.602103361217619,13.006496806604597,29.246654783839045,34.84624851423726,17.22852060845582,-3.6920412903318707,-4.465892740320182,11.217907268968494,22.931793903331567,22.84896824272402,20.192117996997126,21.383554126263867,19.66924149160465,6.161587326115438,-17.49005585105213
325,-28.885708061238695,8.285699744857364,19.027979223256164,13.233195517469689,16.30258612877021,29.39746721258776,30.817100767154447,12.67252410317522,-5.696263669718466,-5.3845665078024165,8.24042295079777,18.0412654578066,18.776051866352333,17.34471049089238,17.642626042392692,17.052089292958453,14.718427398190938,13.303601046297235
326,-27.76617670084491,11.00700491719962,19.829179665551912,9.473705531141375,9.99504958090472,25.22509858105922,31.10576250936062,15.571814228879294,-3.3351741146458096,-4.796811749035551,7.658689404131671,16.86897732520414,17.194706672520432,16.136910123241552,17.738193083601423,17.16299379703491,10.441421294684012,0.1773533702266386
327,-22.3189246078641,9.43925735230649,15.612549508307808,7.0865205460387015,10.749497869491654,27.013030140471496,30.98369223289709,12.718755812841188,-7.083838766475935,-7.164294980797592,7.109765906336211,16.97945383945486,17.29545178288078,16.958033638466354,19.615508769487125,17.422622818021104,3.2366318248659294,-20.014815920091323
328,-29.073340870234595,6.266773754011638,13.747348557575796,4.438772257269509,6.865290073416255,23.560464458178647,30.39210006691139,15.349364640563532,-4.235785336482836,-7.92947180806474,2.074140028325476,10.76272649787892,12.965224211819553,14.292098735627217,16.941662111186492,16.724591368229724,11.911974634424865,5.7602500816314315
329,-37.60861789902038,1.8002116380997237,13.342422819332553,7.305434272848458,10.362354895675983,24.57937576330566,28.354832147863977,12.824466942398029,-4.8997500454929686,-7.846911952874414,-0.10630182601268795,5.907935918418939,8.631415485981558,13.237408441153812,18.277427491995482,18.06326684447489,13.157879311191373,8.615559119907548
330,-31.810532080895864,3.330622432128435,12.320745628134445,5.843252589828235,10.34649292514236,26.467270254850675,30.45168384296938,12.801496906917611,-7.29363294562642,-10.15747405775168,0.34935363684005927,9.419096931364976,13.35700793581476,17.35122251796969,20.466331976466073,15.449223550124156,0.025908617800704747,-20.74489236566903
331,-29.302897137892764,6.008412791443099,14.733690157237069,7.2335170618181435,10.254592749837208,25.778403197914248,31.117964799534658,15.792768172726703,-3.3949090250363922,-7.817890926697369,0.1890491563114798,7.988267722224115,12.322328286958395,17.288752732303003,21.360141571614324,18.16517799944336,6.716726719669698,-7.90057118117885
332,-31.347127824094365,12.68530522062263,21.26766777958919,8.132537324584233,8.710398286824649,26.225599964944337,32.373221510164406,14.963206397041239,-4.480320906445925,-4.9694818298637635,6.551722299448047,12.753148733155065,12.334307563641351,14.645424236119378,20.185436212294242,21.61374810588249,17.820230795316764,14.060563249323875
333,-30.16798028870162,13.438065512242982,21.306722061050493,8.035062407694134,10.168059671937991,29.26522748860705,33.86386466950094,11.936354485736572,-10.56172298791383,-9.222696107643054,6.931123526469922,15.650747607994475,14.050383273148475,14.461761831083066,19.711753202693824,19.762410708099644,8.488528091704993,-9.396421236569532
334,-30.358620074947382,11.439909782775391,21.86745266310398,11.06100909495504,9.648629255153955,22.4231314642418,26.274490284988893,10.088322065017593,-7.782015869977417,-7.615505998015157,5.325487208262961,13.500321134647685,12.889497552954804,12.660808499993689,16.127125617455025,15.31722292122453,3.4630332175353455,-16.312865697515377
335,-35.84949020684124,9.565226469922619,21.51369935366023,9.859362102005788,5.876726618546825,16.183318899152088,20.050265231546515,6.967116587253829,-7.209577184172807,-6.069128780869962,4.645916508761636,9.966948455503642,7.941842173857208,7.158823786155496,10.380734009855978,12.649752492077505,11.889348849957683,11.183641283746645
336,-31.25858042254269,8.458833286456365,19.253413968936602,8.861967562410602,4.119607757923791,11.706762034096192,14.845149256703198,4.4895983385689275,-6.673530396355075,-5.442452505618546,3.006774200825122,6.27951403522237,3.7769999735555384,3.9522278556626,8.70881470061807,10.86102297608754,5.254119914482215,-5.349240586125943
337,-28.127619412371757,15.351414766244718,25.77993740320447,12.226018060692802,6.243817571060334,14.934019198853065,17.290634790765974,3.045820569260504,-10.117912934246098,-4.773633961959812,10.432596847622726,15.82666142438654,9.291893622391854,5.187094381376524,10.03062126127888,12.889135242206226,0.8897361340795513,-24.508700619182818
338,-31.283844686796648,16.52266453925292,26.647252873598905,10.707017763234354,5.128474866878006,16.856440853463113,20.678340431393604,4.8486898544923385,-10.057746263965258,-4.535302231547745,11.030080442182346,14.92642799863865,6.33994841433037,2.456706597416126,10.695731697323195,19.51294076548276,16.187531939559673,2.365447604973734
339,-26.389471945787335,17.618091151000158,27.10060101540217,12.726344472954649,7.25162139197779,16.56917728852467,18.766703229977924,5.12576693771372,-5.720288957323757,0.9012477532482828,13.217950109582748,13.406319986029962,4.545651538286079,2.859050437111769,12.268351707891355,20.834785613019115,18.911241847463156,9.474399952140368
340,-18.051276998607516,27.115267515033697,32.245183999501855,10.854966328348269,4.088329090950621,19.394919194887986,26.942093436731316,11.693733183576857,-4.0270631274250395,2.042421653737458,18.73344640286945,21.966140611476796,11.516960884851553,7.552416229923412,17.769433433613667,26.052505626644617,14.550836747109631,-14.727316622532864
341,-33.812043027375,11.578148750251751,27.033987673468857,20.239368558041583,17.5773261669254,23.506191897697896,20.18284625500792,2.415454549922973,-10.59898283835659,-3.86100227539743,11.446303941439258,15.662760223024259,8.550014336431405,6.1740383366039975,15.295953567703227,23.831255828703522,17.68953520965682,-1.6698158571435366
342,-38.93078010781986,19.66509735067509,33.022675945022804,13.674325011327783,4.880581322767,18.07847750027832,26.085791476319685,12.347806887638253,-4.464581181809633,-2.5878267279186953,10.674101602595968,14.429476095672003,6.713247873459942,3.728514184358992,13.135334783568219,24.313879266300418,25.347123311443653,17.943596510431004
343,-20.281304334371793,14.034157796870561,20.9810587637834,9.711695845101273,7.690167583749204,18.988377632248827,22.690880839144718,9.101150233400999,-5.043671941916594,-3.0141290252869686,8.160419068181465,11.482848425686289,5.917379803243648,4.900209098339968,13.56613695564795,20.054315966090915,10.994048604054163,-12.007290240373388
344,-26.223077586889666,14.046514698446998,23.66216071888663,11.755058753758808,8.308319706158589,18.991698912532822,22.02126143454002,6.682245368832662,-8.894515963196515,-5.540082292387321,9.475528046619058,15.691664591570925,9.426341981024798,5.516128175399704,12.33885621470286,18.645895245868164,8.780889299423844,-16.81958980871375
345,-29.090909656590537,9.421084552139275,18.83028215540735,9.400281144504527,9.14780485417799,20.664239864101525,22.089932406372476,5.680802642772534,-9.02098139428114,-5.150301753416144,8.030673531973529,12.087519187512953,6.244281703578896,4.210954714638258,11.629586589019572,19.74591779672885,19.81051436255306,13.684227399612972
346,-27.04654125326786,4.474774892901833,15.261181898055144,12.839556395002296,15.741254835673265,22.675651175615112,17.573631514420892,-0.18322710841429574,-11.249771155088297,-4.508249194766346,7.645844043059983,9.489733666751826,4.057772312119162,4.755378146156233,13.556362333804653,18.896130236654603,11.88264376827746,-4.280578929942854
347,-22.1445375163445,8.070597071258987,15.44876021888605,8.042897257106887,8.574206987250257,18.649268236847014,19.31113055532004,4.075498789635216,-9.342207866602912,-5.463767123403426,7.324372757846531,11.699438386350925,6.788496411989322,5.8775737395141485,13.563082039543715,17.38919469405876,3.5827516818522724,-26.096255413298813
348,-33.47860418400726,-2.3678989272600903,11.420661196821436,12.747659220697818,15.226584218821694,18.510526564777113,11.953548350026038,-3.640968835016543,-13.261493819831585,-8.540286273719781,1.2273206409360804,4.060100659336838,1.5139987587889876,2.727900968926064,9.017896704594383,12.798208379473982,8.917969106523035,0.05627451730729932
349,-25.901339960831837,3.2692294664747936,11.134117112082631,5.934848477843437,7.457763475732135,15.409185343138168,13.424001237347177,-1.1051206402362943,-11.257222156475514,-6.367424676133424,3.64094802500138,5.849293303159756,2.4916509597251206,2.781981329660343,6.931816698609176,8.531686535592215,6.339872419234877,4.021665567572613
350,-28.79628513387662,5.540836888058537,17.01003723507769,12.889666261834275,13.455064757764996,19.152296755256334,13.88445737206896,-3.987829817595693,-15.166825295831112,-7.304658842333083,8.011429872427755,13.86702667228497,10.336572771857988,8.18668798269937,9.693190405003781,7.1082520815225125,-4.360233992746906,-21.517447669650355
351,-38.626784507063135,-9.82857408971964,12.895624173019664,27.626728767961414,31.57970536365177,20.9408611399166,-0.9303932659395443,-19.737054010885352,-21.860283622067932,-9.01865780423441,4.435270622293703,8.636634341336277,6.6610523895222995,5.37539873356431,5.095070428081574,2.0918991517324614,-4.075700098716773,-10.961513762103248
352,-28.460380597791065,-4.28046832234762,9.214750324543381,13.835137855512013,14.77788296590786,10.360247501628773,-2.070235723113737,-15.121217945312514,-16.873657901993788,-6.812712229162953,3.050747962993326,4.241439134238269,0.60933190046746,-1.1904161277146705,-1.3006174607037533,-1.9608673053897798,-0.6595899664896441,5.11246321598606
353,-20.254869223830454,-4.809892226462279,6.7565773174388095,14.279708765176773,16.86362292048682,10.577538091085659,-4.493780149232567,-18.26023352000515,-18.975969191800967,-7.339501232847022,4.044266137076024,6.0653615583181555,1.9658711089461383,-0.8456558365461656,-1.5062236830888245,-4.340908260672538,-11.455847310971723,-21.29440015022937
