,Fp1 - F7,F7 - T3,T3 - T5,T5 - O1,Fp2 - F8,F8 - T4,T4 - T6,T6 - O2,Fp1 - F3,F3 - C3,C3 - P3,P3 - O1,Fp2 - F4,F4 - C4,C4 - P4,P4 - O2,Fz - Cz,Cz - Pz
0,7.866553128676489,2.9615400527016598,7.179872574559985,15.925140516867847,18.088777456164795,10.353006744411134,-0.16425303985318468,-4.93943369621755,-0.9686252123340694,9.368216595895944,20.024553225426235,23.496838984734246,16.698681717220463,5.452959121660974,-1.345556597001064,-2.9553513827485403,-7.376866506127276,-19.0420798941546
1,7.775950337367424,20.105433889144972,17.50507950005212,2.764323568157388,-5.014163142858008,5.114120156816914,20.337908021170065,20.637402328672497,7.195688470351959,1.8657760472916645,15.66054536902124,31.330573902490258,27.348706497962873,8.710931185106075,-1.942880514881156,1.0179539218820872,-0.21573110198084416,-16.057134168767575
2,12.13311477458143,2.012104803800451,7.262064835630149,24.821734966008158,37.27632440699386,30.961817113585173,9.524523696627096,-9.511365845895288,-10.83030184700111,5.19863079349169,23.879700419452277,30.66717942425703,24.239545601367766,14.939977967088854,11.020290134930546,8.764637072348869,-2.0241060935279362,-24.00471783439361
3,8.662273677128074,-6.033046366382416,0.6278503909595449,20.93797798666406,29.54008071467829,15.464078730176988,-6.731582979270511,-16.18896415233493,-7.183889777000777,10.06878109090567,22.525445178941293,24.059904882789038,16.606768155073684,6.664256699904645,-0.2492465898910047,-4.555331266696469,-11.661199599705132,-24.565670052997
4,3.5388560718012037,-6.2716065797316265,11.445924975743276,38.885131586679826,37.427157478477646,2.568726119224873,-29.586686785845203,-28.931199370713706,-3.4882644357640094,19.220536674392115,25.29647564397802,19.679473059088814,10.870996510320353,3.058231179126005,-1.7359420683242137,-4.167268290208164,-9.151201426718146,-20.162102516580358
5,7.745004006174263,-0.8606671500578421,11.912940619872264,33.530096016606684,34.912042465653684,10.02429499908387,-16.624296804193325,-20.663120128033178,-3.123572181469539,17.134879986139545,25.46747467963206,20.86814988036569,11.128086807415915,5.191078637819455,6.408077148769026,8.163857484198457,-1.1149984796288874,-24.211966008959198
6,6.412753809097214,-3.1566124688214954,6.164402699187015,25.854897358135105,31.467031977132848,14.114774887502113,-9.296468517220067,-17.04083710313502,-5.383615801032546,12.124750811903596,21.617974914703325,20.214342002572383,13.707683479075738,8.534936571143206,6.314740522020573,3.15892456962293,-6.517986131120118,-23.791797755342806
7,7.282099516796309,-3.388430626651111,6.741364674959148,27.16925363160535,30.60029023368928,9.52114038455211,-14.91615734344926,-19.843322050504447,-4.936904802736788,13.125258988563415,21.072009209891494,18.105491535260352,10.551593826347542,4.577861778402739,2.5717564062052203,1.6466045803542044,-4.139133165406971,-16.933350831716794
8,9.211243446415896,4.260402106964348,11.28305991658956,23.414646070137188,25.077852942305185,12.051779457586633,-4.53273981668005,-11.337429526070261,-4.085089300522331,11.82854958936063,25.55295591412962,27.020978881230153,15.845361108835924,4.010167340993875,3.073234073800851,8.181865051160496,2.5703098864164966,-19.47527911271459
9,8.65459650490506,4.915891926570879,6.7836884813313985,13.026318611684557,18.016070557318756,16.369632419001864,7.081655328022472,-4.0804065798480345,-7.027976428811579,3.533847650132117,20.140438142841415,27.89332763578706,20.698555624985975,8.525848935578676,3.989207894448568,4.833156254799036,-2.929138052219559,-24.378919044965397
10,7.219328026509864,-9.34510822054822,1.913104311430355,29.80897676250448,39.24851432049561,16.36988988191838,-15.875122817881934,-27.133456013813813,-12.087451057894498,10.856735731925307,23.586852159560877,22.852284571705276,15.490572731151936,8.193744836085855,3.262242855764369,-0.7846157479640238,-7.208156801725564,-17.740822686699634
11,8.033726737879164,-0.9403501394581996,10.869133850182733,30.15771326432193,28.780863363880947,3.6112208717324346,-19.947387509296718,-21.08252901977654,-4.3246782676097855,13.477614839947696,22.410512440092536,21.378833877536362,12.843032165659544,2.990495839451476,-0.7561668199291092,0.6931627660931439,-3.0576765724266886,-17.394308814333865
12,11.14835780132744,0.05855357659611928,9.390783079252392,28.207512885817493,30.406723380238052,10.033964347506164,-12.762566032876407,-18.04976892429924,-5.756063015164444,11.250422469159695,22.17573626388728,23.007080811882314,15.49772182451727,6.794403158974728,3.9270961956242223,4.039063715331298,-4.398624919364627,-25.826930499411947
13,8.696604425118677,-10.955528987771613,-1.5704641859365578,25.88152151883473,36.096585101009815,14.792640554367896,-15.97826956289214,-26.940548381442703,-12.919015325385612,8.782073768393264,21.04516845909443,20.381703705636216,13.085530971077691,6.35546301328912,3.1254284798662066,0.6125086196592673,-7.046555514265206,-22.043890930742904
14,4.594803501937222,1.7606440492510622,4.841129312256716,12.528630953590978,18.554636543957997,17.00027659660384,6.892088404843738,-5.47126667113122,-9.160921310304587,1.819219316147003,19.713289832003465,28.177786507956576,19.9932731353061,5.95111361424954,0.8758166907789158,3.907466454798512,0.6891976398105257,-14.943529356963914
15,10.039021416157901,15.15485613791824,13.771914292948184,7.033019721996857,4.69948565848032,11.41143043702808,17.648079750871837,11.90542605240355,-0.13915485493922217,0.20746560964358696,17.937599236847625,33.51852082005622,28.06737661214401,9.902623571244858,1.5482025379976403,5.228853874458854,-0.050513755243584105,-24.40401233516838
16,10.532704408231467,-9.496895455576439,-1.3363290800675853,27.196254615298724,42.91308650185912,26.747786693344878,-6.0648138618041445,-25.270182548866597,-17.260057623619044,5.914955112018896,23.559314489851076,25.997569964228173,18.26448575307138,10.150399696033892,5.870796830318229,1.8499349750110545,-8.06002878762048,-25.42931160029355
17,3.728175236937399,-11.591030192736707,0.6172373351185942,28.681369931011215,37.48440936962123,13.82387658725589,-18.58433025456837,-29.093868829573672,-12.577786690982089,11.872776932460226,24.850149420334102,22.04567572123871,11.176368373110753,1.8025887802809752,-1.8180542576611185,-2.777464188368378,-7.881284805271577,-19.90625268060619
18,9.208175821466012,-4.8255551187361725,8.984777039915025,35.84876289115172,39.098344453591714,10.2137116850709,-21.050282586268196,-25.244569216725335,-4.851439750723916,16.758308807081825,24.140715934053024,19.26973191158176,11.213841534371053,6.423068242986388,6.111881518348579,5.5814497721663505,-3.040809738288599,-22.031655958294294
19,8.644196432373572,-2.495208936345718,7.51100600218982,27.325697027484733,29.65397819710795,8.532133271953775,-14.239193585464282,-17.734952796875763,-3.6296592956555265,12.531828521847954,20.310114867819365,19.358606964063387,13.635429438803294,7.650950548376963,4.406966569652828,1.4227500537519797,-8.564447789074208,-28.243837045737227
20,3.975805925085581,-3.3383963322558783,5.758889350782219,22.089911867147652,23.882878972149356,6.328721835256685,-13.172204385196853,-17.318867830523146,-6.077361549097417,9.10409784060683,18.755869433030025,19.62360175205974,12.85929466896145,3.392489418823584,-2.8373645608814844,-5.3860466914740375,-10.314885911039863,-21.40474992906881
21,8.614341055545403,4.055728843789843,5.957958383500799,12.286953446738933,16.7097826956068,14.758022428244795,6.290470686713866,-3.8103671296457615,-6.366819265440351,4.919609721111181,23.433399974459125,32.149360177687136,22.088329481832815,4.364370572876738,-3.629644998171317,-1.3783232467609337,-4.669456062421671,-21.2547683590692
22,6.766448157151058,2.1530744861589968,11.628664197617772,24.256538349980033,20.551510310880683,0.5284877869883045,-16.899787950618837,-17.8343584396046,-4.900161960164449,12.091696605909439,24.682743975421847,25.6376554156849,12.918082269771583,-3.5348031397733566,-9.887967110243567,-7.240961206430518,-12.058902460970227,-32.34602557895388
23,9.290517261664188,-2.6436716043104163,2.7436155289568918,18.71402806711133,24.302283522594692,10.980424882808727,-8.269496355629773,-15.55782168930723,-6.583090123258199,8.86802596342726,18.97837728208705,19.009801278556377,11.984538619292298,4.427663529890897,0.55759905609392,-1.7660769200734325,-8.744763664740884,-22.715484726881144
24,12.56195140030036,-1.7981905055573713,4.349539133559103,22.510463946787514,28.06808847796507,12.480897475466524,-8.247802524667241,-15.039273484291037,-5.177838839314077,10.677206825777809,21.676456270482856,23.11332339401717,16.19625478198381,6.807270086377364,1.2912200544852432,-0.37020399206263804,-4.808326347358216,-15.877774680850825
25,13.08552754562784,10.166264081730189,9.906356666810808,11.090298336191523,12.291319172299824,12.322330097218835,8.90878163404369,1.7526796942679899,-2.735594654203692,3.718273408864537,18.46913419854403,26.662221621743907,19.069560766078656,5.780331428489908,2.745403702382855,7.718566418600768,2.0533479819263762,-21.488167172525287
26,12.315343499518304,4.2830943050815735,4.563062724232477,12.241642379663322,19.75041818694015,19.654893026020687,10.385258350851355,-1.7450346294943342,-6.110535172300006,2.9798702446461,18.842334711275885,27.348408170423266,21.931493792373995,10.81152607817373,5.509914874298471,4.919867466540174,-2.770603167302647,-22.20901944655905
27,12.549900174501968,5.242309255872428,6.869121474375257,11.807347173844688,10.209070870267974,2.8158212192917724,-1.941141663010972,-0.8278011290989983,2.906075573053725,7.956347679143336,15.15505541431461,20.322998977210478,16.83434664564078,6.662116783388828,-0.35976550860008516,-1.1664245101998474,-4.372094730852912,-15.85018700633379
28,11.772340906779178,-0.7552044898936529,9.04605987464125,31.012387106353835,36.980660714422925,16.98451034627852,-10.458803236172058,-21.78202204561738,-11.300392852731763,9.485255924847444,25.519696694719922,27.989979203239617,18.22547382815539,6.556573692953763,2.716081821793152,4.109075296196436,-1.7683821768836174,-20.116334078819378
29,12.451594458170606,-9.919308388232915,0.9050170422026308,30.47573177582262,37.72793336425499,9.481221504416368,-24.82962006006891,-31.640142759590567,-9.678360983218411,16.580757825624083,26.8759248425788,20.192336155284337,7.694297017696363,0.26719065012796434,0.8802949167947628,2.511031170318162,-6.011855215851069,-27.644457777527382
30,12.397904240949046,-11.099686680337854,-3.6456108432201506,24.322002053531975,36.29848635908601,16.298954891835596,-14.207147336387912,-25.28099407947491,-11.24089684863564,10.175966910061634,21.475644767950726,19.85770593115032,12.520332351743384,6.36855493515704,3.3462142431428394,0.7856778141998889,-5.867925872387341,-18.360109268095698
31,10.731964901976289,-5.95852519798315,5.067306571649913,32.09615656247592,40.34624150419679,17.050169414757953,-14.30297942914056,-24.087529515956142,-8.07735758251442,14.74428765204565,25.9247305050084,22.2630782252803,12.43789882285651,6.479391474117599,7.528435400855493,9.296630018687072,1.8565803921297517,-17.090479196634064
32,13.312667284819478,-0.5323355984609021,5.541470503727129,23.342950173235288,29.451869609034887,15.427854396573082,-4.4698506460970515,-12.615696958517267,-5.214553579843875,9.550725613953697,21.518744402813272,24.332025161039287,18.18865178008983,10.281439382424491,7.694662024215621,7.25511678496808,-2.4054181456091923,-25.218048785608886
33,9.926329297647221,-8.447534324793397,1.246205422161976,27.59504502575036,36.18140017573405,14.695107710164779,-14.007232315248636,-22.647430169719332,-8.919333474696034,9.797066117828322,19.576018687010972,19.61548265270543,15.112614400516025,9.80819987355744,5.005786665239015,-0.1711701736557336,-8.678576775477861,-22.21010625192354
34,8.338201419564967,-2.8681987393097303,7.979580636243364,30.011795530525138,34.68696688242875,13.835498843319568,-11.327282865884921,-17.714741876916253,-4.363864679661474,13.318813916622805,22.677833162181795,21.64560820401885,14.681784460314592,7.911214345825927,5.34231726445397,4.779548592128391,-0.8237386516026274,-14.344156193571251
35,9.945996080994052,2.6145855880277513,4.935974714564447,14.798807797036424,22.41609860683236,19.86029533220991,7.470141298879793,-5.768235183135506,-7.871208853596352,5.556986995447308,24.203327295897274,30.93517457592053,20.543593731342785,6.559719810380774,3.8822094236492797,8.11045701961296,0.902417046490512,-23.921676806339658
36,9.26467162422469,-0.5301071436278989,3.36648487472408,16.655422587897164,24.414980600002195,18.346199084395284,3.2642355191186576,-9.453088428010178,-10.250983733677536,3.0379516723481474,21.93285549588116,31.57045642071589,24.472632148487367,9.402803446483102,0.6221454587887172,-0.9015862003500168,-7.822679698838986,-26.605576391512734
37,8.612060925020318,-8.710238423241817,3.8694400834260723,33.33272957179777,41.514343477934965,15.369940746016363,-18.13977293851721,-27.24969029365191,-9.950627017297018,12.023465375678922,21.71377348909542,19.584408024654582,13.81359391983966,9.038326937303864,5.39209760631486,1.5029319654108813,-4.579615211445371,-14.117392440618438
38,9.296203146006722,-0.2529546405502809,8.571031264307454,26.733308926535482,30.857955084757887,13.717800529806645,-8.318847774716438,-15.972342170978092,-5.770095763205757,11.810940692039527,24.250172290636243,24.858105832771116,15.753128432181184,6.496991264068255,5.02936915309904,7.26517639338173,0.542337312473204,-19.477793677968453
39,11.078460045756112,1.5259396948086517,7.077151136138062,21.27139055183241,26.191988720460493,15.114567549976528,-1.4703232235251207,-9.506986370143716,-4.196331284998751,9.468256668345052,22.18118170692583,25.82791130843887,19.325689998576763,10.481446937583597,7.3951878367935215,6.924437052117062,-2.7781948987831626,-25.72770803555721
40,7.495944531724375,3.610110944610917,9.782504295553437,17.395746222726288,12.84118837933924,-1.1099371705430123,-9.322300994828552,-5.390616073910863,3.242150420736114,9.545777799996081,14.226498726987876,17.5879215186444,15.464147521844694,7.508949812274658,0.4409580477369713,-2.298950600477429,-6.561746067330025,-17.231936866242695
41,7.578745797741864,14.101987187097304,12.365498777842793,6.02308664021044,6.575094632441983,15.476962893289144,19.791455334302405,10.33939964981721,-2.524767880789976,-0.4725361440265505,17.243070475927038,30.547806133751852,24.54227638926717,8.961429725418329,2.9374889501126833,7.057692574120929,3.8729791725190643,-14.265971416924266
42,9.127984350306257,2.0957702176930226,8.706215265375628,23.19538534138846,28.656119213544695,17.130861797387464,-2.4414861508509,-14.090479955624543,-8.811072048293825,9.209981685321903,26.024972821954556,28.739980529804864,17.26185923882776,4.836361406258597,2.833267119546087,5.833002526321184,-2.323674074161716,-26.65601015057294
43,6.282511274221577,-6.613042874882716,2.600377899669186,24.652910013392333,31.56939265203035,12.854092881367029,-12.590374840993904,-20.53228313341115,-7.350046389929453,11.496233867310233,21.218223601013726,19.607133270173996,12.965063320863708,7.189852339586084,3.6685228800094083,-0.1699943448499382,-8.173293156732667,-21.508823962736574
44,2.6938506795955974,-3.4336333194317112,7.706469636029742,26.510853874529946,29.403932645691718,9.805853727906793,-14.226137261257048,-21.678951780397952,-8.909445805842202,11.786275613759285,25.57276665477818,24.858988869932944,12.654026282511579,0.1113010425008119,-3.448074792831284,-0.9894771961889265,-4.506396376889248,-18.98292984340963
45,1.8923149282251357,0.42238911939518836,16.606955080482148,35.406584178528874,29.52601125150184,-0.7945583414068607,-26.322063051024386,-24.882449462193197,-3.378430926242666,17.16070196569023,24.51465797389862,19.198303813070915,7.57866417136077,-1.6940539064335394,-2.44199469787957,0.7081475977807152,-5.444298292904055,-25.727982552314707
46,1.96881458654368,-4.95995125341778,6.133787461548418,26.33233970200575,31.275955643579568,12.500907582264334,-12.440606267208759,-21.02117317633118,-8.868472265792244,10.29287946184307,21.342061171730386,20.023738802238352,12.215607741235688,6.066064636845104,4.564542086184152,3.0272812988642865,-6.153866342512911,-24.599347396122724
47,-1.1255033042551965,-1.042706567218138,10.302838274789819,24.88788221838096,25.744022707110048,9.524531506724502,-9.50684507862797,-16.0950694495451,-7.452458817174548,8.709121219092552,22.08069016772459,24.924526814214303,16.33077184353791,4.1489235835153195,-2.0608893756281184,-2.2991556217798825,-5.855793920463866,-17.617042497623007
48,2.9215680030993156,2.7992318514941297,11.12805937945751,22.27666094311281,24.046403266089158,12.745750072358318,-3.0112776610050744,-11.353492763296105,-6.502403573598905,8.256873446275465,22.42359863054601,25.05710191328018,15.023645807346073,3.7169738572265176,2.1906398196770103,6.038424088682907,-0.06427009783223585,-21.175181489991594
49,1.2518716310769058,-1.1357621387970767,8.860388201235828,23.395788048277275,25.171357225507073,9.945532333528428,-9.12509377036476,-16.93486468366633,-9.366313732411138,7.227200302141131,22.06346055789061,25.633590193000895,16.513846938429786,4.125529652939171,-0.9658133225760561,-0.9383692673290901,-8.701264899764778,-29.489456280055347
50,0.11936636040121361,-7.414902973829779,4.209292210938166,24.80544801210007,28.262479042127225,7.370586109807904,-17.321271875830906,-23.08560478553235,-8.807885074401112,9.535591670873286,18.441429508307838,16.332432254838096,8.957280812288786,2.314011489156618,-0.964187035734576,-2.9843636225695667,-8.75985707117012,-20.372703853560786
51,2.5664088633793196,9.630157840457159,10.198428487638608,3.8287087627521994,-1.203573790620407,1.957876367839239,8.406314564969483,7.872337238917556,1.4816603092574943,2.5291120920424204,15.955334945914256,26.993517744385773,20.162160304394625,2.412730764952367,-6.367746130002385,-3.0213681206106093,-5.0230937568313285,-21.847241115423124
52,4.620656390195753,17.935816266436404,13.969190794652208,-2.1263825234406246,-7.837814050695817,5.7396101073890495,20.450692056879618,15.76749304414033,-1.4231215923798202,-5.2537740120556045,12.183065158959572,28.345603740389816,21.973133165516003,3.2192399157864835,-3.0967233475129357,3.8477181027889276,-0.24882919809242127,-25.991749233622237
53,5.75755281461356,-13.254454811969394,-5.382909905335013,22.65668367882899,39.23549433403496,24.601323475345318,-7.9740645865593205,-28.33874579601033,-20.8682183800277,3.4406250529770928,22.310823096154827,24.028163870242675,13.836117403033276,3.573987628484202,-1.0196174804876958,-3.522695904504994,-10.729369699095816,-24.723274814573266
54,4.166661940237055,-9.1184163938071,5.1349702888449515,31.098619210937155,31.856512920578645,1.0524560569079409,-29.075148973313276,-29.650528238563478,-6.2838740399474515,15.797833241727876,22.17435231563219,16.26798959810155,6.791388759452031,-0.6700540679322063,-3.8885542578374723,-4.952612030786673,-10.084820773580187,-22.579835228042782
55,11.849514283454612,-0.25963447246319177,6.295753831134737,22.021397042911627,24.586377887442232,9.131773790928525,-8.313023147804076,-12.952458042892465,-4.628711658505747,9.02277204218197,20.850441365010465,24.473973682768744,17.051259048058448,5.217189197297597,-0.3945357178856698,-0.30210337317495,-7.393084697453558,-27.940936528421492
56,11.339747914810308,-2.5255174475663873,2.794137497798874,20.720042870466123,29.435667485820964,19.17013611357845,0.7863537940673204,-9.704791828040507,-6.4299278177411745,6.17535030601503,20.066441108019223,27.615039616434714,24.82640817828099,14.653351434231094,4.288608799105644,-3.301942498829357,-12.300679126267204,-26.367667383445248
57,8.964802251733122,-6.631651270496956,6.243921224097601,33.54393624982988,38.53019626638943,11.747161836377096,-18.254827073461556,-22.92178581216831,-4.8118067150165915,14.048963338710266,20.664317778004172,18.282202999921402,13.707890450272647,8.983671751984675,3.970590760172391,-1.3318698469819876,-8.31634721101611,-18.64473439153431
58,10.557963486264125,7.238943187574353,10.278379200915463,16.68572382079409,19.97815551980539,17.317940835272488,9.827620732067842,0.9152203826827239,-2.7987679537502252,5.1786781880612125,21.437990878856773,31.232254230860207,24.395363768161687,9.372228370440864,2.304355446232129,3.8499120994405085,-1.6390076944434615,-21.611608959723736
59,11.220172819848104,0.14290678788964006,3.7489245740605215,17.716093533149046,26.41961430103453,21.212474716471583,7.078592907855945,-4.941269867791165,-6.54156198162121,3.865893506215418,19.637457811406254,28.94851223167076,24.94661047523086,13.262802835439446,4.645979061563681,0.2051252021409097,-9.67265410487097,-29.898867369677472
60,6.19028553738491,-3.4275421690150067,5.527174204265876,23.68831028386614,27.799343871425954,12.0370187348767,-6.901637232459117,-12.589624306752798,-4.626571946450278,8.224720863513326,19.110951338573454,23.82653347829658,19.604535741367705,8.939429012449223,-0.7473998488566621,-6.010099924856342,-11.714543922379166,-22.473162410808744
61,7.243519670807651,-4.431991777045368,9.452053172845508,34.607943648900964,37.090777561971656,9.97511790981148,-18.90296096469402,-23.42419592431494,-6.222924146354294,13.23943690247893,22.66489126647274,21.95789307990699,15.103782052655102,6.6482781804810145,1.2088036781311593,-1.2704648616341419,-7.1442546661011415,-20.390244444075748
62,10.669510153536473,-3.8865985952276483,6.68854153671399,28.626215183279914,29.924724863956794,4.959183529615418,-19.73868951462634,-21.06015832711461,-3.5041917980420845,14.114467890104706,21.296268315241008,19.13573841379124,12.096408219190087,4.967548030654222,1.682696531348354,-0.23191045135178404,-9.816682122725814,-30.903941157153962
63,8.332504531881044,-6.315504164153848,0.5888460793006287,20.30667293120639,26.978351305640498,11.140231791565991,-10.983969874870859,-19.233343439886735,-9.834129768088234,6.8594995943988515,19.411511812109165,22.098721850055124,15.377714478724721,5.03787770750457,-2.1892559450319773,-5.96783874061377,-12.908707675481171,-26.953477446147083
64,5.991658022593313,0.509980069845102,6.598958230784157,16.547736780387893,15.035894394421184,0.7628144737073115,-12.421851921785766,-13.199816479419022,-3.079658675811259,9.668349900099637,17.95081999251478,17.424445068390206,8.394857673345145,-1.5502837819393367,-3.77313736816359,-0.4085215469259657,-3.4041984678617787,-17.91470146010269
65,13.313627409784477,16.471689493487233,10.591728602884148,-0.6865522259352153,-3.0817514611132233,8.147443554016691,18.95373019725139,14.302688824367278,0.4007825179290466,-1.917132872869883,13.39333957940078,27.33418850536388,22.0388387828207,6.165671165406639,0.8430872847976092,6.507331403344271,1.7947118600658931,-22.58698093373749
66,12.11594089622466,-5.298925835641272,1.5541003963407065,24.04090873166852,33.17994779454077,16.139279607283285,-10.222414549751464,-21.331996764180854,-10.758472041968894,8.480017777493725,20.833324848058872,21.0029276320064,13.740204246160673,6.789079136278707,3.9157478277878544,1.7015966813476013,-6.947110179870878,-24.214315743510532
67,7.6185932840663195,-9.267921485493064,2.251475931573856,28.6701823422535,33.16491997099662,4.984020123591914,-27.238460791251175,-31.75919360341002,-8.620132840194023,16.91451420119355,24.903143509022126,16.20805242172001,3.5296033319710016,-3.254480100479094,-3.0515346592185595,-1.7350907304237513,-6.6978248643077904,-19.929651196361277
68,15.49015152525134,-1.514691197084536,6.553391810414302,28.980207500986353,35.23351267547779,14.93118624009533,-11.318233050121949,-19.012719648367735,-5.309021757652148,14.42542246811477,25.31190367266938,23.303855868421138,13.855727354785394,6.266109554282058,5.87951009528095,7.596381959017056,-0.0014348946936295316,-20.390856228775892
69,16.5574200598347,-3.456442092497409,3.198480462350315,25.86920879026623,32.827704610574635,12.92099259726304,-12.875560775330516,-19.7050602565815,-5.510034348731653,13.380281800411925,22.854274503513686,20.96727700356889,13.665234637105385,7.758993293189506,6.051610524975235,4.44474445318982,-5.084095184267836,-24.925360772981744
70,14.20682431401341,-5.444466131424576,1.391663260292062,24.061589003770983,30.605575860191543,9.928900467459327,-16.18764679104142,-22.187292350123535,-6.675005529614179,12.479150471602193,20.75124183057864,17.55787397290924,10.06998051594334,4.5400614795367815,2.771883417387834,1.6187709668342563,-4.637387711512244,-18.076820655106566
71,20.232177561005184,3.9321041633836007,4.093950887494425,16.04521568285316,22.718584189043444,15.263088256427247,0.69546184174146,-7.882829569722463,-3.448927485319671,10.701201044969604,23.672197861893125,24.821069535742527,13.888471578792172,2.885912787070558,2.742749377734973,8.335648187882585,3.5104011520219753,-17.12250486728176
72,18.697063878094816,3.1183807400604575,1.6286974571008266,11.873857909842123,20.881385004129275,18.508015705830303,5.380014879592469,-8.110101008042742,-9.114019414708872,6.428435450381568,26.627252780952258,32.43932405829932,18.45278573255755,0.6873526548547007,-3.0540259657112565,2.769809310382525,-3.0357366301120194,-28.37437441820262
73,11.320589827555978,1.1585583200385539,5.567457868046897,18.006849201223364,21.480031304401667,10.841129229679465,-3.2361696267103977,-8.913056709436052,-3.594641370230747,8.52903234771618,20.9296248119652,26.149272372255318,20.310815475916872,8.619022679599885,0.6342057275005974,-2.1596092204122987,-8.284810594012805,-22.848661002123563
74,8.767014346735321,2.9999901692843833,10.859557806818751,24.993308339717192,27.519803132057344,13.475471684141047,-4.132098847345663,-10.558146410296038,-3.0711331373968087,10.916024783811281,22.109819826159807,24.352592210535807,17.639967781110318,8.940819566212,5.679536563236224,6.1688709300808195,0.9067588574673215,-14.038264029988595
75,10.279377024116416,-2.1063251126024554,7.542633030260466,29.998267011330267,37.751463379912614,19.777608521070963,-6.716306701742185,-17.82356754546408,-7.069996039922432,13.214201046531832,26.923002458250572,26.89208427949788,17.5892409524039,9.462789543554118,8.527260762579392,9.159568506285755,-0.40120043053367643,-23.22959919595079
76,6.437735602853289,-4.685399522482569,13.827925399051535,41.91842347459923,38.21061626923922,0.02700796515413427,-32.51630156082543,-29.288170655992925,-2.2053743972774726,19.486014820807117,24.62829667898422,20.644731244817535,14.403299915619296,6.955816323427862,-0.14045974650108728,-5.820115239852741,-14.133042791769954,-28.920782645005264
77,0.484889906769216,-6.869853553447064,11.157026406924794,38.04997670849017,37.43850790350108,4.168823812099367,-28.376622164124715,-30.651548866593306,-7.886106339456277,15.057226116295782,23.70147995527816,20.308343465893213,11.72108623832428,2.6044256940305726,-3.594075362810738,-6.385902664891539,-10.153187886073853,-18.594533711817192
78,8.802253436651188,12.030320666043782,11.13423620632703,6.356364329361742,4.100647347476727,8.266241524197246,13.306898240760665,11.345666387905787,5.181219492459167,6.346258330273973,17.673961212609946,26.31207291037271,20.937138209356863,8.913139667329869,5.473957327461486,9.325809658525046,2.894886136741864,-20.73483305297415
79,9.342277330293058,14.175957642786782,12.105018402130206,6.694958154047482,8.636786454566158,18.839332750369426,23.866884151761735,13.726872937361637,-1.3954347186194986,-1.6057025498883444,16.10793015380425,32.13044733466838,29.44172867899978,15.161295427460141,7.600607898982059,8.223274651193176,0.5550024748986959,-22.64613218236986
80,5.967238671874686,-12.253908958512916,0.920100399639124,33.82796284515046,46.773117258389526,22.19325659999203,-15.209506324359053,-29.798522267496676,-13.900867581671765,11.015687920155841,23.273478264579673,20.70700032999112,13.82279586847938,9.75196570813221,7.349344410650199,2.807660457116617,-5.754833561425853,-18.13600274720984
81,7.067234706978585,-6.045509146468199,5.898184242764016,30.237799933551575,34.66374116042054,10.73197252719294,-16.816818191043254,-22.191322133193932,-5.401621786561977,15.26121931937408,25.281766363549956,22.68792812982036,13.459594365470181,5.691000028585295,4.148539461518831,4.864271170018342,-2.1653410919835685,-20.498303314229453
82,6.087730146248677,4.545142707655146,6.506688747209324,11.153804258725964,16.10128257731076,18.046466852880773,12.941311192490732,1.2207322459907353,-7.041503443618242,0.16907115872796663,20.245749870215374,34.208761029348466,28.195088043612856,11.094666704448915,1.5933841854368405,1.434597296912872,-5.789090321192676,-28.093408799796393
83,0.7484069132686033,-9.036315068980176,3.7066322307808615,28.01069639822933,33.7558131300218,11.282181539667365,-17.161752871325742,-25.47949165725979,-11.386131373943565,7.756659954176443,17.30055550972727,16.27554912107472,11.11885838073477,6.761053062262465,4.004090812146234,0.43242768312666907,-7.630743211517801,-21.307891653573478
84,-3.4157080027264506,-4.259828104324194,8.698395975973447,27.237287202713183,30.997103150387613,13.52915058685255,-9.755977000223682,-19.133004342669075,-9.497073775401077,8.733121522913883,21.55508351127209,21.968364749805783,13.231431909618124,4.9024680969325285,3.4955733992410756,5.197191994983425,0.11253760064257276,-14.863387139095508
85,-0.20376892093884713,-0.2964505778192074,10.297772812498037,24.385487687683785,26.489879852822906,12.737577306147916,-5.184189828774114,-13.353031425732025,-7.116747323871492,8.411433818856596,22.832969909437015,26.279873552888425,17.339900528029112,5.905920723337809,2.4714673485020016,3.9003640993878763,-3.55854114654966,-24.89153296499474
86,-1.8076501595827357,-3.8289824309482636,7.387676383153846,24.64367009897678,29.256507658059522,14.35936803940952,-7.4326081565025595,-18.2659173366949,-11.354122066977006,6.327106910866571,21.876206694617775,25.710896533966878,17.60740281894408,6.110096331324562,-0.3645160124698969,-3.012526986687344,-10.573163583031,-26.831056000584997
87,-1.1580911081095615,-0.27920136675285645,7.198526587174681,16.411511939635467,17.676134695713277,8.776463511383257,-3.2432651716159473,-9.791404069751144,-6.446690034130911,5.788406277079698,19.714773962136842,24.628826647485493,16.02605718752199,2.2204995765377036,-4.572722163931056,-3.8201632860517303,-6.650880647331987,-18.84725199329436
88,3.568963669869608,0.18859976584520657,11.992088319772597,30.495032604547944,34.89888483810954,18.8137416547101,-3.0836534518318226,-12.82594290387932,-5.584377003068301,10.884620755497858,25.213513729275327,29.202644473508,22.196282158973766,11.890164238470813,6.66972662827948,5.046589764523296,-2.9102140657687623,-21.304448701122617
89,5.194731900157064,5.575887190504908,12.225232535701,19.42905416023448,18.684218100403776,10.481557151681463,1.776286321015261,-2.999216782550708,-2.1959459102047356,6.42846988120013,20.907457172966165,30.387919250637133,25.133883028522835,10.372780088630623,0.3345132764690713,-2.1940221341801407,-9.524412661257188,-28.745181669959837
90,-0.28663179035647157,20.672051580251352,15.986579262154484,-6.621756707062233,-14.859786731074854,5.000841616194523,28.631872041976667,25.799355772960848,1.929620506671199,-8.608815067787964,10.311151667733403,34.40103918136902,32.80294864048679,9.054143112334126,-8.460771193803073,-8.494373760651147,-7.506565741806685,-17.632625118028184
91,6.434021574461273,-4.339357136546998,6.187162556462768,31.00127602000768,43.110071150009716,27.403559353740025,-2.6143411186053047,-20.568570552863864,-14.098896344732633,6.638270939025308,23.09603317180547,25.958189246206935,19.39493110517813,12.547845665025656,9.611981574590223,7.204237092028162,-0.5960833614355033,-15.10929490421122
92,7.638720560140656,-10.230708608158853,8.528796691853065,43.15301947889593,44.260776769399506,2.809385430767331,-37.84209191460033,-38.24308924317516,-6.738980778568126,20.51149106950935,24.34282859333947,14.009718965513441,5.414596217725378,3.77235918986224,5.272439593695294,3.6369909174766444,-6.886291431634885,-27.325824415609272
93,2.3002960628690996,-11.244585387882067,4.743094990702314,33.05012263919773,33.563794486350325,-0.22179984172189943,-32.60308770195442,-32.504705199323325,-7.698772943272054,13.560282933170773,17.89702279809041,12.608121047423682,7.173951253387284,2.980099172868048,-1.5363040930770908,-6.6192363516991835,-13.406046643848779,-23.68596007673253
94,2.1033401445855366,-1.8366303275863336,7.272039821824805,21.86953446633099,24.109280220738235,9.290174366241335,-9.170155486903957,-16.128768735687103,-8.544140250602018,6.3202148620306975,18.893380527812543,22.157069083504613,15.17551908868573,4.852427301399308,-0.2975214589121434,-0.5572516469333255,-4.828505437073256,-17.58785626957452
95,7.1502367152937785,-0.7591748667730307,4.134636870907789,18.07448793950037,26.398402859267563,19.68731713297388,2.5080968077058383,-11.580055765063856,-11.35544627990488,3.3361909207713127,20.861046867411307,27.19404395674547,19.29981961631875,8.089690210787879,4.7643423321711476,5.899985283501359,-2.2787599091547492,-24.38546331173055
96,6.727521972875194,-11.02173857144984,-1.3556476141840104,23.94884200101505,31.033440970764893,8.692046305085965,-19.722637156714054,-27.40974791865758,-12.595067536424105,7.326949474957534,18.145363578366442,17.999132481095952,11.566824390988971,3.9509381481755796,-1.5758439801661497,-5.918547390161836,-14.072046611095143,-28.830304373010563
97,6.430352160298122,-6.717476423262014,-0.22641221259411176,18.154364081078043,24.770283461398783,10.485812765828769,-10.089105438155348,-17.97965837587196,-9.154357453011848,6.596749436636424,17.97164535648034,19.650391860166902,13.054304033689037,4.430317484087585,-0.25355355128112267,-1.7089580429917275,-6.684424570781286,-18.62304300829713
98,9.716577829756957,-2.0874949482166434,3.535000528655888,20.018249721972484,26.908865978806826,15.243409835235312,-4.024152529781912,-14.329177742985134,-9.083954158574574,6.164828846652617,20.220983219171256,23.77383294744392,16.113994131849413,6.322589444625668,3.547863153355562,4.893650419121301,-1.8629027349906448,-21.254059590969163
99,12.57403037419017,-6.503096342817349,-2.300717723376384,17.772382152485175,27.57705686326247,14.835528125743254,-7.258335678680234,-18.384452801724027,-11.650350226302198,4.838199675465866,18.73434331182429,22.288509386860103,15.829003937116584,6.623411242315471,1.6565136789829897,-0.9130241882411162,-10.15235529290345,-29.78665715266389
100,3.2451353855610416,-9.456339989140147,0.9592286952265348,24.565566249733415,31.721742147359514,11.443307539755557,-16.15269202975832,-25.412735875087527,-12.199958593804107,7.890791480757767,19.545761571055102,19.38690092819891,12.429376505844626,4.620105445019408,-0.8780817367494519,-4.718327346825296,-10.328022224018415,-19.857411901567893
101,3.9701835081249195,3.420769069783544,6.099299434105662,9.891722569490227,11.462764450309276,9.459989006930106,3.8813114734514342,-3.336982834166086,-5.885027626236983,2.732693710627028,18.593967544872076,26.7775336818113,18.178353124005888,2.712321365159884,-3.063060021154853,0.7874539041474555,-2.1110879525336785,-19.327911699213917
102,9.558671999258157,14.901466071750031,12.160700845126298,2.572504356076404,-1.8186938026394601,6.196969639184091,16.684717742122853,14.301648326579576,1.5356213120715767,-1.5438847824105533,14.33628574505456,31.440385366072366,28.15318184001537,9.308203496855267,-2.472134591713935,-1.6833828428907698,-6.672555509522896,-27.979597055792194
103,8.948691331901426,-6.85155725461869,-0.021980639353804145,22.6650801580011,34.564342682167,21.39314200136729,-4.220308926094461,-19.411252296549485,-14.43114650622644,2.6567266345782015,17.978621695355763,23.40366643776252,19.083612130400248,10.105635626506324,1.6666050106672385,-4.889928646442946,-12.28764408559,-22.888989931642993
104,7.182382667253247,-8.187268434222968,2.047043867793374,25.668491433128807,30.000359069677636,5.896053597024185,-21.57873245134985,-25.648488084670465,-6.906055000218447,13.947227839129827,21.35529616675607,15.76017469721337,6.126095559819945,0.10983292151216334,-0.3020596472284442,0.35468571106886615,-5.504204369668208,-20.25817333071043
105,11.88775352261246,3.419474077341821,6.110882525274112,15.764325205903289,20.09290019555498,13.44153793428832,1.3426825114421441,-6.525674169366129,-4.115028586796902,7.575589252400894,20.341890248919242,23.871541236282727,15.900710724759515,6.139008541973102,4.68043375624485,7.207444107730437,-1.1019440452686993,-24.98348817903844
106,8.892843891064562,6.616397303096665,9.065743175213848,12.667343569301584,12.300395875280412,7.935527604521692,2.2545056813742734,-3.122838429397331,-5.002219460017635,1.9415808349027865,16.46162751326332,26.16710372094135,20.45230707455585,5.580603487971616,-2.985885556982025,-2.8201268091171885,-7.601055423833173,-24.902113633784722
107,3.216015956443825,-8.920777509063562,4.459657307932939,30.206158834461355,34.24212829908967,7.069065110284449,-24.799584829931035,-31.994161055581912,-12.863399601591878,12.07325329218132,24.53317959741632,20.907266940495933,8.366244184013418,-2.9906304057693514,-6.853009603419726,-5.708740156288115,-8.368018279977294,-19.09215535285882
108,6.438520882829785,-3.10033399841879,7.784210731274189,27.650068962791917,29.37291084382897,6.782084853429558,-18.18220631445043,-22.92598701824131,-6.920992762053949,13.887576586667938,24.92134137260031,21.829251671764858,9.930698602747496,0.029145203524428315,-0.5017746672439587,3.1591216220277243,-2.5250150181942104,-22.161249882382595
109,6.0345092672743075,-4.220256183015232,6.5121297294293115,28.017133399998386,33.04734012320938,13.193098436127828,-11.850698162761079,-19.526103712991834,-7.632545141078034,9.807505938011808,20.31121117491884,21.198461303797767,16.23675597090475,10.63009106169747,7.312992366738441,3.7413867969210464,-6.4578898197347785,-25.3403821505579
110,1.5249065871436407,-0.6772726490159721,8.357785237605155,22.01117384100637,24.774719269873714,12.31823309263482,-4.257356747833238,-11.785100738353536,-6.263757017117216,7.6795077274540535,21.589695003244085,26.961295293620356,20.55785009449865,8.311664673714986,-0.3295071435639314,-3.643526452262014,-8.918270005235877,-20.745127477766612
111,5.085706343776082,-5.151252427806203,10.925531826814769,38.383414814558385,40.85672350143218,10.0153869140253,-23.461880821011714,-28.2861217481285,-6.143304036053628,17.807077215543718,25.538402774901435,18.810373386793913,8.964438630830365,4.212408251086494,5.307677190879736,6.455713952582004,-0.16342260776228562,-16.38408861090164
112,7.5269325003299175,-0.6404994315107555,11.331570287365095,31.19416017778831,31.799859866205747,8.40083867697672,-16.07150667682459,-20.247092518784708,-5.431586718878789,13.053652457386121,23.485419638090097,22.94993127076311,14.738933694572747,6.460335912703036,4.445528211722642,4.855344734102525,-4.340915184353248,-27.39529595523751
113,5.2406132650091655,-3.6297853828016065,3.6142466745245216,21.37577840623709,29.82836427871881,18.314969136667283,-3.6222323409616135,-17.269159543364434,-12.349058451125774,5.968439665145502,23.23644083527945,27.644127450945486,18.840388616612255,6.793131989241318,0.7511714422985669,-0.8008255699474583,-7.108692426403706,-22.09131279072661
114,2.1451705989136234,14.520871974911888,15.259951008228947,5.150757501348145,-2.456186572825337,1.7297082862657653,10.786417813556971,11.537792894243305,4.276068809819205,3.138252073900485,14.363481444838632,24.637585425260582,19.44331146745549,5.023636115259515,-0.7785437735399173,3.968080795382845,2.5387308682140732,-13.25375422689329
115,7.669225821754142,8.51902697039342,10.537174322268697,14.986739600006047,21.62068757707021,24.444388775038053,16.010558946395733,-0.7197407563882935,-9.968151115913619,0.636475191082651,22.92986921189542,34.90190926796013,26.35396549134155,10.560865494373822,5.203243722581742,8.016850529567959,1.1145440160380846,-22.0507858498844
116,12.746256844817951,-8.83259739404749,-1.1072365059417517,26.549765512031616,39.57154796304337,21.071621333202685,-10.312560974938958,-24.838352503109057,-13.349393770303765,9.113338285470315,23.498821412161824,23.571269912966052,15.631072291825884,8.50487808656224,5.426588527075531,2.4838359533294665,-6.834733138323429,-24.30991623546415
117,9.81611093278189,-7.56960553200032,4.074993656404306,31.558279020579636,37.88343726724406,11.704054263151159,-19.524087606653126,-25.57557188057881,-6.814839146755833,13.932377001698779,20.783543631024408,16.396907431586467,10.514102637281802,7.727974541255669,6.68043233584354,3.9839740178333574,-3.5845789696303445,-16.80946640799882
118,13.611531063584872,-2.7004073863330973,7.981315346512487,33.114078938973066,38.663469927926855,14.237435003007231,-15.43392934685494,-22.574654931645828,-5.744955725933063,15.833467188841066,25.85354288621036,22.392281445160233,13.203626692914451,7.203367197726771,7.7662188453760255,9.010091783988928,0.4033802877095619,-20.822960024328054
119,18.799083943766792,-3.5888788684110584,1.6405195341801393,24.060608097785845,31.9776172980014,14.149958653165731,-9.552969186242382,-16.292663854586262,-4.716641299715953,11.066859117020373,20.087568581760223,20.80691167131539,16.364388888923727,10.920749038085843,7.478302811730192,3.9138289200685614,-6.6200136297873495,-26.80907226785541
120,12.420138437157524,-3.360615364104626,2.875501809491867,22.586384678913426,29.378190253739252,13.114165305602514,-9.540224391739628,-17.253201966385376,-6.4788459676412025,10.338619281467698,20.630359523098956,20.787225658280096,14.455242709985118,7.638655661146093,4.135769909212363,2.035304417671069,-4.652407346631321,-18.41402755044219
121,13.603213479680976,3.3852957112418447,8.287704922696914,20.932511558787755,23.356063909310084,11.02684625035172,-3.6440306417673356,-8.161209768884278,-1.2719720779046895,10.978581477448921,21.57112757388203,24.331694411014197,17.58702489825507,8.209379014157198,5.207171165530209,6.849632500933422,1.1889005648220383,-16.822434014062125
122,15.055756118123378,4.729432239459986,4.813266005354327,13.509370554420759,21.2515745020924,20.229862874071834,9.871192259939143,-2.872516704002893,-7.117442663954811,3.3757678816472785,21.708057272684464,31.742924367797805,25.100497980064514,11.152113681821717,4.300087043771551,3.94432674115293,-4.273928599082614,-26.506253475017473
123,9.550390130985292,-10.626287175271258,6.841404342781887,40.959438905217176,41.79313131254505,0.8081356754493969,-38.32070057850761,-37.653456827359456,-7.164558455597746,18.21998704974087,22.400427184810034,15.0042654858663,8.151414401036778,3.549715143518348,-1.01510886946662,-6.0907960626802184,-13.130120502562898,-24.33049857003461
124,9.833511728354068,-4.632085229240641,7.52495273860094,31.274849825637343,31.88143182040855,3.9400530910617486,-22.590691380895343,-22.667684005700796,-2.9693761958361837,14.768482903414734,20.55465502861299,18.189972521619826,12.57566730719943,5.9584356562097405,1.055514825660231,-1.4346662596998052,-5.995346313664684,-16.279743536189013
125,13.500569064370728,0.8878344087577434,0.2715440050625744,12.07248099504935,25.769919209935125,28.028913278251377,14.407391530838705,-4.42618237354616,-10.605322854678578,3.059135284245065,23.94719176841735,32.231880598886946,22.669166563840278,9.1790375282989,5.769683002860845,8.100696380317883,0.013981602444735714,-23.507455972739574
126,11.835076194970977,9.387401401348603,8.481809124874022,6.748384129075035,4.034628484824884,3.489206855036135,5.137348700144094,4.552129405019538,1.7239088145990167,4.390108352749099,15.860528185947407,25.556923204546564,21.304167046967155,7.441831272709756,-0.897569671116058,-0.9294846565448353,-6.429825993240048,-25.01976222741271
127,8.371974790517507,1.5237562231135362,3.2031116845552656,11.935216783948432,18.851575157774963,16.446665922508398,5.047368772339972,-7.201630886420909,-10.081414642701658,0.2165343583561506,16.189051833664465,24.57537916446817,19.44480319281479,8.283529282381494,2.180280346248911,1.7844187577145862,-2.0888376487110554,-14.027582102138018
128,9.632271891145523,-6.799029018413248,5.98543241537869,34.933586244468536,42.52102048708726,15.515353481352708,-19.691624550621036,-30.187057685100616,-11.509005614437527,14.570762974451812,26.85684723440522,21.914551591047825,10.242993023930044,3.536601151903289,5.01364800363046,7.238935841640729,-0.8160581536121573,-21.54874329151048
129,10.92143168160283,-6.014303399860126,2.4198186092551857,26.114071721989905,34.386546646243346,15.208537525723585,-12.388241329121293,-23.038326373785164,-10.955269618629265,10.312526627302603,24.517409181878588,24.66359406257502,14.670618408305474,4.594626418380996,1.424557918140844,1.1598982748097162,-7.41140220720385,-28.2418407320291
130,5.594347015635885,-6.152167406628771,2.5915894292890846,22.439517390162283,27.749073790007547,10.137586388516747,-13.058311416723207,-21.263050218398,-10.79447351579108,7.680724757086774,21.781512325072747,24.27424516399848,15.140709163234886,1.9931997983362264,-5.8406733647107885,-7.477384346042314,-11.218484245549595,-22.30259478082423
131,6.92014845481413,2.7167219487547456,8.900067697587312,19.3936243476438,20.89445231983822,10.226747916471632,-3.1286643918158807,-8.695415651639188,-3.3435497324027277,9.39320802426437,21.725942330028843,24.682976407409527,15.824058089028856,4.156429335488306,0.7109349474998756,3.369781558245863,-1.4494820256042074,-19.330935214920085
132,10.367880547765246,-3.3965698221071556,5.926204089478757,28.60202409459997,36.14885172353082,17.946012432970146,-7.781182989248984,-17.72529794578428,-7.334182356052827,10.785431904322047,23.014659622924835,24.403943505389577,18.080163295118307,10.841373055277295,7.231791067740241,4.29088827822152,-6.069635749443259,-26.5491598177196
133,6.970168174333412,-6.999825938350784,2.428619660191499,24.399656760132334,29.484859210490022,8.99596433079089,-15.693804441762179,-21.500895653230472,-8.047151036448048,8.977882555825062,17.78942875085179,17.45484926015297,12.005092532972146,5.527714457822455,0.7878761961178075,-3.04433343218646,-10.595391154641238,-24.36280569208252
134,6.739039295588111,0.5587303735419593,5.283911699194106,16.716962527846746,21.97657915409384,14.603417213936272,0.2712961427565018,-9.959485568860176,-8.501213591647605,4.099513728534607,18.78092191525814,23.766317702433852,15.669701340612152,4.214216216640505,0.9693069563013959,3.9635138766157074,0.0545279010209854,-16.063090929877266
135,6.56442535423467,0.8535854091046614,7.926812177051285,21.583592964469755,25.62275636599828,13.802715876497526,-4.110555523736718,-13.669494702170546,-8.187927102947208,7.967383387429254,23.044685805992874,25.88548616123578,15.7694537163549,4.322356697012425,2.480585287862661,5.613060995484062,-1.8082115948322872,-24.89188262710601
136,8.076341640247895,-6.311536487368807,4.120732867680634,27.52793594101182,32.42899268378094,9.834478017101935,-16.92800777689653,-22.811832169491595,-7.492044207832071,11.615649346181408,21.161026237910413,20.079151566914284,13.51483936879275,6.727462199265878,2.5144895563576446,-1.265867764448323,-10.721759978363751,-28.371439752665918
137,5.847305005275187,5.524803205368534,10.641709428181017,16.401513355368888,15.242744326593765,7.274911657670264,-0.9760301071121305,-4.599005651773515,-2.2013109028075015,6.412297413055235,17.948949376362155,23.616184641062862,17.22766840925717,4.841053933157975,-1.545878909833225,-0.6709127733035601,-3.786345041994542,-16.927140754869015
138,10.262777310426666,-0.8432253029641438,9.694901605472634,30.977762613334093,35.26090786613438,14.38706300594299,-11.7916394964796,-20.545200154323872,-8.292266064910747,12.376519641631207,27.02535456411385,27.95241816034931,17.079360257817047,4.932099418942577,1.219266487453167,2.8236002559337683,-3.5957019700328803,-23.46948448333434
139,8.304042769529845,19.875307877348572,18.558261989985162,3.1820914366271795,-10.254968624169688,-6.022128717162835,9.984164565505125,16.68093506215995,7.995031161874857,2.763870173115491,15.6143362227538,31.758245923621434,27.304939027071267,5.672802501016947,-7.872600570709915,-5.951571847329877,-9.221949471988802,-30.53068381133654
140,8.036701525321286,-2.793450437847114,5.0922368383844425,24.278412498563206,30.967062777636187,14.694749472565432,-9.868649529080416,-20.85743245059618,-11.835877469028677,5.873991801285661,17.778003396589565,18.466597130363244,12.077969448141927,5.695826204853949,2.9188185953539856,1.3373091235274526,-4.491041882693703,-16.442998366060145
141,11.957350080568467,-6.202595183565742,1.9715992175224675,26.966392867953886,37.32481776921551,19.352757871127185,-8.730540414949303,-20.689864770853546,-9.444401611539433,11.7204658062986,26.15536394529414,26.821613096362988,17.522144687098876,7.282555589723698,2.3935021115456787,0.5910759028511449,-6.200715599501066,-21.448787055070344
142,12.142920592419568,-5.74942432808968,8.18451845211126,37.71710274624023,41.84439203119506,10.856009967714026,-22.68188745993624,-26.970511543492876,-5.239877696419579,17.511105794341404,25.881587967896074,22.490834396243194,15.365935599718954,8.90139722947045,4.20947116011872,-0.6363925013378297,-10.65306637563309,-28.368902628387147
143,11.476880196389544,-4.118483338485804,-0.08531327560202913,17.46002958900698,26.21562482808953,15.352120681730229,-3.730957529577606,-12.891007561757087,-6.157806001404544,8.23992664232532,18.818841640056103,20.146972367560316,14.406885841106483,7.64413799595122,3.9123660447373574,1.086355404990865,-6.896366517975156,-22.19481626972825
144,9.54587319968818,1.3549002550932001,8.073507685044547,22.42516948648434,25.964635994428406,13.176841202183978,-3.5214008526531093,-9.950735025569896,-3.2006400080469417,10.366064209934196,22.08342636187924,24.95868286460451,17.728221960036482,7.492162743627238,3.0363822804531257,3.324058746225698,-1.9524950233440816,-17.498084387043328
145,13.195152807109574,-2.5237465174772873,6.30988003037858,29.779914445701685,37.95733969143743,19.21026220295548,-7.603964611725151,-17.652345693008854,-5.9345727947160665,13.506007790355786,25.293840497877216,24.595203799890577,16.616911454742866,9.966116325180204,8.776438901765523,7.940887077086062,-2.3577326799984295,-24.62238313366916
146,8.555825738183996,0.65147102136829,4.598411016005313,16.354080559089176,22.6734102827707,16.6253167261446,3.277774774588591,-6.894683569571247,-6.273419399866489,5.567275858243881,20.825245112708703,27.894844082329712,21.640190529753912,9.188452779274712,1.2983904210677337,-1.6475764538992115,-9.502006044527533,-27.11455335988973
147,7.84656311516488,-4.4902949869298645,7.837617266965296,31.856733633715105,35.36262042528438,11.11349711340946,-15.186246703084088,-19.162025982602547,-3.6605443617265685,12.902864069739367,20.20289833765555,20.120567364757374,16.400397679226508,10.334566144903295,3.6695179947173178,-1.9833248563725436,-8.253466621497457,-17.607232062179573
148,7.798113059667416,-0.41541489368766765,12.536850864073243,33.9776034277637,35.48436779166381,11.942334055031578,-13.053663857292644,-17.72776916482328,-3.547682496365862,14.38555281860763,25.05523629312232,25.43715686348973,17.371744550057414,7.277615768827845,2.42428763906357,1.669084996468767,-4.948936945631235,-22.244401762995896
149,10.0113514467328,-3.630829124337914,2.7722059841647297,21.606992634567728,29.330517590675,16.15820550659504,-4.756463890970675,-15.009251277489259,-8.84033140602914,6.555091813318463,20.310600335218357,24.77859044727947,19.10422139672803,9.692210150107702,3.794136119984508,0.2920016061018342,-9.520341852704279,-29.42514544387296
150,8.513641309488804,-6.7032621192654265,0.274960316384275,21.340205884137397,30.033694132689376,15.394626439085512,-6.972351587685102,-16.19741929415281,-8.091503947639485,6.527026813571296,16.80162752444089,19.468934262097477,16.340981158075877,10.646168172434662,5.191845997168404,0.1684773100441131,-7.328303210141158,-19.213080297981616
151,8.590383134713418,2.7069980005072796,6.475659676858817,15.948541232260263,20.28542110173777,14.65887328331645,3.4704887683710655,-5.464914057429872,-5.793866555907319,4.502502476537628,19.443168664369374,26.84230104367631,20.261498234891608,7.9179273671395,2.8246641208985115,4.6561443038733685,0.02883696923228377,-17.14210589979771
152,10.78657568065361,14.502941960526785,10.367637710680299,1.21147002970334,-0.5191862182895766,9.578196065275216,19.02020490982419,14.196297094256918,1.0617776589706285,-0.7017906757759559,14.520491715373284,28.334945274622328,23.45969442806243,8.282276984966412,3.1016485755089147,7.788162437715207,1.0290955210854251,-26.047313283791837
153,7.385847989596998,4.058531026073315,4.686344997126171,9.958953862301309,17.027026113629695,19.768892853948298,13.010139739295404,-0.4817275625811345,-9.03890383880361,-2.6953907599056945,14.51603591108037,27.000083888761882,24.548639161855657,13.148742089401189,5.245986406993534,2.75864077525059,-3.580921073465875,-18.50860045361295
154,7.739121352106236,-9.64043577102186,0.6394898068989904,28.046059980598812,38.4469347899704,17.4924782845383,-13.832744702627483,-26.265790776685677,-13.040911447076528,9.68088060355262,23.72633212933665,23.516660596986107,14.805784096642816,6.381201224645677,2.8922075860484084,1.6144085287962298,-4.376049547761824,-17.825553052315005
155,9.626623187267027,-7.488796576217896,8.481876748531414,39.2746162732683,41.59559484839669,7.038515338172643,-28.37907640559794,-31.531809348693617,-7.119294971454252,18.138683281905973,27.6922199894273,22.906629389222125,12.042051336775458,3.059499298120013,0.6698383673768095,0.9417580077302168,-7.407184275975731,-29.01486451681021
156,10.399630445383545,-7.0249686462449885,4.051069093006556,30.522075523009967,36.938545369456236,13.31470336119731,-14.653001159212343,-20.71501052829832,-6.076476327639892,11.182959257741668,20.10536180617466,21.720232541449832,19.134977975491722,13.311386889567551,5.866281247672789,-1.7272271050797265,-11.29229655408346,-25.158230595310417
157,4.783450965028737,0.017443028204645716,6.012360630398268,18.361421160339464,23.841000437463904,16.072113103744798,1.2736883918373216,-9.056555648095866,-7.356991387814616,5.697199245844195,21.24402064345217,27.592171218648165,20.40895748765186,7.758095774895738,0.9011068777300375,0.3013817420326536,-3.948290508178758,-16.904292769947634
158,7.770580890019278,2.0559265872870345,12.657378857802104,29.39985756031308,30.344617484194803,11.837500997052683,-7.930932460777969,-12.294952814583887,-1.7882288720644273,12.90465795642686,22.92011237267668,24.090365115728154,17.13011290806822,8.995748137482424,7.15489496653622,8.626665915578757,1.2595640535700057,-19.45332713406144
159,9.041738472536863,-6.002163873033553,5.849880160472384,32.67088816927915,40.23885855284195,16.952296802313803,-13.13180886147659,-21.60073161156106,-6.369343878948806,13.34138464041086,22.136024903822154,20.216800195006495,15.35510474443303,12.261409739951787,10.1977668873659,5.29829970118418,-6.56377066375381,-25.876742096659378
160,5.6458172110076665,-5.42119079106247,4.31617453289564,25.196392382819255,30.621561550980317,12.081230668221528,-11.644685952843147,-18.855617026847046,-7.340892878645365,9.566089847851206,19.847596112238314,20.54745437312867,14.838757379989142,7.8670090511006485,3.489760482310952,0.6884550710032468,-5.860562874457706,-18.76202179939334
161,4.9090125927254284,2.1774053893866046,8.824204687649065,19.49661338120408,21.99901622809171,12.816014938048532,-0.20947640910266596,-7.502673765527808,-4.779039549841705,6.6445453025360575,20.161616401815046,25.927618392279534,19.37064316783322,7.85492837126033,2.6347675890779625,3.645185872508331,-0.5141329101223348,-15.267079064913233
162,9.138745835021997,1.1563882718548144,6.1093561549809206,19.066489991922495,24.75751613505842,15.730236703552341,-0.7093271945624958,-11.256541401589166,-8.203026987299532,5.851137334593605,20.323486983958922,24.40831924886628,16.794119412375327,7.483104452615828,5.888915043212216,7.616309357934796,-1.1563095803384107,-24.634682169637493
163,5.945546990195872,-7.178727196870766,3.014016992628307,26.80311756533689,34.51711124851803,14.452189683397362,-13.95625060107436,-24.556390879602542,-11.94288920180717,8.584899469165514,20.539666466609585,19.711845079422798,12.273748284879822,6.109948259326931,4.172021121953005,2.6319165279936345,-5.190141452528115,-21.120586663785957
164,4.741838937406017,-0.21775888369219357,3.8255850858967726,13.283645188171775,17.3556356615321,10.370886095106455,-2.9226736032273375,-12.014463153100396,-8.695402956877864,6.373218334626026,22.08264906376331,24.83708660806156,12.451932599731983,-1.911247417852971,-4.679257718684512,0.871691820872994,-0.9668293762182771,-16.309356055110435
165,9.036495123694586,21.03648611179791,13.94522377845775,-7.484785692090012,-17.42076163524701,-2.5737157814783886,18.510269621985618,19.593607700113616,3.528083746964395,-1.5767201491317928,15.74488721290822,31.510377834853262,21.131995865199986,-3.10772005746648,-10.416078735722204,0.8272283540958485,0.36119165122568203,-25.955770315892973
166,8.286967870883657,-8.176303146695307,4.753538556158495,34.030401506998146,41.62066139629255,14.385429396741568,-20.49397451823926,-30.33500048532999,-12.536464432516173,10.399566445614335,20.32661770217702,17.83890847232719,12.27789018996429,8.477017303307937,5.233654088498968,-0.0012327244364122006,-8.974002537669584,-22.13559427063534
167,7.148284727761166,-8.90607720141706,-0.43507306179134586,22.042331331024613,28.115567738592826,7.813451970431704,-17.435844168567947,-23.123412366092616,-8.107277541688424,10.598403259742595,19.244385524100274,16.83734593269846,9.360324559098787,2.4990668609193833,-1.1388576504751073,-3.143145005523931,-8.174137036213722,-18.618625428459556
168,10.09574978085757,6.810070843624947,6.446809350204542,8.322086277986356,11.327139196799523,13.585256959059993,11.050431292704504,2.4365595216440368,-4.086341913784013,2.976760936995553,21.685330210404317,33.68899653024329,25.417412655911487,6.423078558972925,-3.4899976479775443,-1.9590147641963627,-5.818670054472615,-23.96089691083646
169,9.682185190506168,-3.130293726279854,3.20203650865077,21.28284070052154,27.690927254817108,12.360212728163276,-10.44011840018612,-19.896261074851964,-10.244747003568412,7.224347390910927,18.086619483804668,17.007019907513023,9.199685554898668,3.6335940372163282,4.090596968667197,4.876095555647616,-3.6533818272113394,-23.547256552757034
170,5.80444399069416,-8.063738246198522,2.011592911703858,24.9607063996711,30.07258963816013,7.856100115496082,-18.908478580936595,-24.590999646777252,-8.494292682913484,10.703160017916613,18.365356579787612,14.559353126633866,7.004846013999132,1.7161739206685924,-0.06940643730816863,-1.4455571780558873,-7.4216856263461,-19.718456533532443
171,5.27226813337339,-3.11737613329942,8.905883616825056,29.746152659062513,31.915654708680012,9.093888925776865,-16.58578680262457,-22.249583831741298,-7.092134939726774,13.366053333665535,24.922588113131575,22.93636243893196,11.632675547343501,0.8692396566371912,-1.567454633872473,0.9153933520927265,-3.5939592823245645,-19.867567844003727
172,4.3929938114687825,2.896444678633338,7.667939577043689,14.038989592956293,14.110067713255516,6.5118805996172044,-3.8935924503041623,-11.110675260206811,-9.414292980320623,4.073846268191895,22.201041024036765,28.93733810547944,16.53553944395933,-1.9962230524685172,-7.922441730063983,-2.756614263493673,-6.695159394511388,-28.676243283474665
173,5.396483037175368,-2.269596325152412,4.440337812591491,18.819452662216445,22.771920092467976,10.088292601362577,-7.396462820781644,-14.804469568370237,-8.192233584194478,6.023901869678769,18.57273463344985,22.481990361391528,16.411215872095458,6.085873938100369,-0.8914395610332064,-3.9184581192688803,-9.886617786074826,-22.747750202082877
174,3.0411639702332116,0.3955592655048546,12.060123428108522,28.647950453939696,29.397077282871347,9.98597423765273,-12.058523610025693,-18.26925943371803,-6.806830558650558,10.918297213048012,22.834534961827405,23.19756739650319,14.075906316593631,3.973782201499652,0.6423534434544881,1.9937548705077877,-2.0280050628494863,-15.70762274069516
175,7.954798231438404,0.8950851922491417,9.48836907744473,25.61334578537019,28.89729536968514,13.070065747165348,-7.317572889909581,-14.5706932443408,-4.783192685224529,12.526778535874623,24.749858870747094,24.78151264894676,15.089870474153567,5.731805003162879,4.275725072024347,5.859801714060084,-2.3275227754507712,-24.201133344989216
176,7.3403138310284515,0.9102155031566102,8.604507226845143,22.558581338751015,24.402979582543757,9.747303974609736,-7.390215235875334,-12.276469043090506,-3.4082671576678476,10.755435988136227,21.201040587976756,22.832787668917582,16.077245450228627,7.235695467656402,2.846752310365993,1.0143930753728854,-7.448477700382811,-26.210395319282963
177,3.143948064163914,-2.219529506639131,7.89790651472117,25.059136802198285,28.042737266639303,10.635794843873835,-11.008986542792123,-17.867697907998814,-6.8993879920220085,10.502960475342624,21.752432413960374,21.696252322047588,13.307997628571338,4.224381836123779,0.32918883238561425,-0.2375164527175962,-5.023214655996844,-17.260335207711794
178,8.761755871938627,3.438591301699429,10.792350966037594,23.672897198108835,25.757602367912973,12.883338387153758,-3.136523890604149,-9.064452869087239,-1.8046937952045623,12.668071675630742,24.892360196207395,26.80121449267164,17.843033713904084,7.320981544640248,4.733206430801683,6.547792041335295,-0.8501464101238877,-22.2952294577566
179,8.593931456781148,21.33797965968881,17.586622697258868,1.4991858043935458,-5.263369130946763,7.7478248525462625,24.256914095899187,22.450786193606703,5.8801732462063,-0.1844950083610537,15.63360503458697,33.708939016342875,30.817776131112467,12.36280113554074,1.6005977423432791,3.2133054937002856,-2.124270338443455,-24.605191604643682
180,5.1160680949191875,-0.8965195832339191,6.023231280256008,22.33360237002545,32.26844329804388,24.842425139681843,4.8774407179690185,-11.714370739807043,-11.895869902698326,3.9653813503428545,22.938330942582926,30.74694355615401,23.914595746605,11.310370255843003,3.236249994061842,0.24160269292410677,-5.197275930620346,-16.973414358842422
181,8.809647062256836,-2.7455620826344758,8.708418317186894,31.67818706639418,36.61800249288588,15.067353255315377,-11.297702817876537,-18.414247680018075,-4.127832700026082,16.315075335731287,28.162271508965148,26.496299655298138,15.854650656247834,6.17691353137541,4.497530338728028,6.379378114407343,-0.4705982418548998,-20.330509921519614
182,11.381169357297269,-2.310475195584587,8.388821965871058,32.30623450605101,39.29145492409942,19.657798670192797,-6.5944312724304766,-16.37855978672698,-6.054094918760086,12.753073408888115,27.589860585205972,31.452224870454476,23.875766387593497,11.75248305002811,3.8367922293872696,0.03524851272388305,-9.185456857894275,-28.785671567780874
183,4.969171508267528,-4.160176620643452,6.657686501050478,28.208583706408394,34.56836006861729,16.462787578284804,-8.518053101019412,-17.987929281413397,-7.490476573558217,10.574177037126168,22.54789661510892,23.462264566588036,16.590362893974497,8.74357220429333,4.575932930918725,2.068792804192837,-5.440018417483034,-20.543537418069892
184,3.900358030000807,-5.6183054695291474,11.548191400890131,40.71869249623938,45.03983352671143,15.009001023555971,-19.583033946154615,-26.982020718260927,-7.131687421872508,16.476791272784624,26.042506125218015,21.95639908506918,13.664812048701767,8.32497468747169,7.228501495228732,6.3459793101751085,-0.5494718470541358,-15.319557385236612
185,8.409973483716064,9.4099891781935,7.4556192336679885,5.29158842733282,9.383782395916597,17.943697690836803,19.360840825478043,8.016004587208526,-3.72799082644841,1.3298074857936906,20.95275455001819,33.08233616688896,23.965966844479674,6.621464344928603,1.7479144210987148,7.2604388532686714,1.3266103749044593,-24.473718030000086
186,5.35662355938565,10.399366045758612,8.484247243046235,3.7869829852649555,7.374658432851116,18.840978780618524,22.589901551795375,8.84410687844345,-8.41296933146324,-5.785819761736489,17.97660372174984,37.12727711549364,30.85395384350346,9.207271550386373,-3.3212066993499603,-2.429825088978435,-6.561437812172891,-25.665305581703883
187,4.074989233141325,-9.582165636271949,10.280254224584635,44.53971363250429,46.95876468245813,8.257232642774555,-31.580277713707236,-34.892807393725356,-7.664303674896248,17.894584894146078,24.11848809226432,18.069508637560553,11.638308869967243,7.395375419915276,3.0288776968112887,-1.9947905043621068,-7.709680858151713,-15.424447782109674
188,8.39842968635987,-0.3774789985519923,9.276170045317647,26.62867626788974,27.798781372499942,8.591935195300978,-11.647747120423517,-15.361437727567136,-3.4318841789941574,12.698520705133262,23.661024535765307,24.7273002384816,16.09383585023583,5.166163889320947,0.9968888360562611,2.008651318478305,-3.9337171529718047,-22.374491908327045
189,12.04276623122169,-2.376036159112462,4.693050689637681,25.04228057310857,33.3146891251897,18.97534755456956,-3.765975822743064,-15.00082464675004,-8.442959184519973,8.175667152084221,23.07794497367901,27.902395613267153,21.64660278832443,11.26407528803015,4.79185842086607,1.358280508325108,-8.163590549805008,-27.935624938662922
190,8.731513601864025,-8.272963522268684,2.450722606759595,28.288602746569957,34.21840690332078,10.05766743352372,-18.073959953176956,-22.75294461615244,-5.596183892978369,12.447457741413452,18.512962927664677,15.963870118849,12.083322157104112,8.654531546210498,4.397386100568185,-1.058918919042918,-8.055818450545658,-17.544219815559032
191,9.348657363134034,-5.821179157986395,5.995299066622792,32.08376172534378,37.880716442439315,12.91120090538224,-17.3947337719971,-24.59175452601097,-7.402530732089098,14.399095513898144,24.51313403144764,21.408908425619572,12.514148493673144,5.672162078995088,4.149556721184966,4.101829566805675,-2.4457049999848333,-18.267031390205034
192,9.21181112026647,13.298783358942325,16.156894028635012,12.516762303543704,3.030806508108649,-3.257338028946332,-1.0369142529596362,3.7042956458402814,4.833699095127614,7.005785157435126,15.695905823863212,23.145688799327647,17.804756210198253,4.443547468759706,-0.9496311224867321,2.6827498872384306,-2.6821680145395654,-25.812488301757064
193,5.601453362475123,-2.082502803358055,4.475817994364726,20.30969244005198,27.991807706950407,18.1938866511745,-1.0825090166486901,-14.174937375485339,-12.05846768056808,2.3311312903558874,18.156024776702857,24.779392724984767,19.41384599688768,8.791240029259344,1.5460464181674274,-1.5999696583085354,-7.492262681443066,-19.845801410253483
194,3.1005083088118743,-9.003336025431981,2.921760414574885,27.97729231013786,34.74980795583793,11.862548573492617,-18.603720952804224,-28.105856763326983,-11.52118187997496,12.969689683311474,25.654449047151623,21.403558725022794,8.843607865501378,-0.11342978828444614,-0.5381309021252343,1.8116990835572573,-3.2700060048933697,-18.707449460940587
195,7.3946260380069395,-3.696082783632499,4.318369607033003,23.273831433254994,29.827831005299164,15.030005016650996,-6.971070824850807,-17.003911740246295,-9.074953467619642,8.760117628584926,23.57013522236595,26.096904722591873,16.772193323033328,5.868227103893241,2.940574035041367,4.345839224603564,-3.3696648053695,-25.056930921426748
196,4.946346334187642,-8.281690430426789,2.6473633340342344,27.232909207901997,34.71938853038415,13.981914437099974,-14.127962908627099,-23.567199828555307,-10.555684271752666,8.9791540564248,20.025514032777288,19.87458913336709,14.011692018607317,8.252541816830336,4.67031126825776,0.6171810193552797,-8.99842569510848,-25.797327416641924
197,5.692114930634339,-1.9117350189841722,4.015789798955423,17.28071466223023,21.213715627723133,10.20807729286395,-5.026694863332975,-11.472994386126064,-5.983443092483787,5.885870424045067,16.280192455701734,19.050367362298726,13.247234099470068,5.045015474452325,1.851695451516698,2.528797463767801,-1.9446671148139671,-15.519302525951405
198,8.129273754019104,-0.7489881606706219,7.274765982042601,24.181103194330472,28.95331143487571,14.749430664964674,-4.799543602150616,-13.324126094021759,-6.780436054541674,8.086537417508337,21.47610294479469,25.392560010907822,18.317125208663647,7.916048102642357,3.554937787018064,3.806251907564703,-2.705015986628336,-20.904034515242373
199,5.337128242857181,1.6662383009753434,9.216810274651733,21.806473275606262,25.082153195347075,14.718881366467366,-0.3063472292162642,-8.905231535496263,-6.199174012947996,6.278516644799048,21.42552947574037,28.710174005743344,22.725642378298403,10.284009812027213,2.6971658381004633,0.24648007418325613,-8.360526013822607,-28.540941079544435
200,5.736883023391669,-0.35189618161664254,4.0743267156163,15.637553569387435,22.327958099475318,17.29292469623869,4.666202955371603,-5.738821336632738,-6.175078817217267,4.35448688307286,18.816968390340357,26.292083988184995,21.467000559268957,10.195877965297502,2.315207032710307,-0.6984342777210046,-6.4015911550901885,-19.09039706897932
201,6.271306002415405,2.218936676421705,9.983756408924663,22.031241004961068,22.944284926742284,10.311799555155925,-3.8630199927947073,-8.542572613072,-2.224888794799653,10.807473761859404,23.749698426323423,27.864076747083853,19.10161988154917,5.378182980049928,-0.9613747676951908,0.12626156499458902,-4.331278711169732,-20.846911948551956
202,13.963393274542565,4.627070281451096,11.604630895034003,25.179821799401832,25.56647797840948,10.594495218478517,-4.443004464336782,-8.341576055911707,-2.4214504245691986,8.932303115646667,22.37389754623747,30.357042894158496,25.02403952199611,10.457978100549196,-0.09031176903415866,-3.2584536364153327,-10.967381449451384,-30.844550131473373
203,7.564155908154414,-7.07072577732865,6.38702798785002,32.109098685915406,32.83130362126428,2.4913264654509724,-26.059977405552477,-24.825490087767587,-2.0295027028727692,15.909329178170887,17.698920950952832,11.747646948135596,7.5293134460679525,5.442646791174331,2.477128095790778,-2.5122581846666097,-10.45513944489278,-22.345677714932183
204,3.792605925224115,15.103692629932004,13.204213245157632,1.3932166336193232,-3.4422559326446636,6.622789357461294,18.835435097068185,16.675858399575144,3.690703876776765,-0.1544708998536928,13.29596867602705,27.627558371882888,24.380924832186178,8.630682766113736,-0.23103899897721256,1.9884962905838552,-0.09805002170814353,-14.963499699336783
205,8.268221382772715,2.1273397662323896,1.0499182421727793,7.713946200029693,19.86633077545225,27.04837464235658,18.359628119478135,-2.2887748378555344,-14.548524621967072,-2.8148761563955067,23.03439827978245,36.55193853471464,25.712427038099893,6.37395419232646,-0.409207701027213,3.2617400585993774,-2.98646831677283,-27.109543225883872
206,6.6275556790630095,-13.980076237656109,-0.006000582984699065,32.45399308870089,39.70972683214592,9.596773037578957,-25.121202507171777,-30.782158394530565,-9.672932839815159,12.676689022647656,20.582514114738736,17.458514429984984,11.711050909723713,6.50367244942007,1.6284026527489495,-4.015778967368511,-13.175952865970865,-27.78943709327643
207,5.801152002370169,-12.663278248496498,1.176900679205489,32.12793184098495,38.56781510506933,8.797259729778556,-25.195433469208847,-30.10512841757572,-8.473911990454988,13.178199377395659,18.83931972011236,13.812526093779427,8.728797997371121,6.148473848025509,3.2629051465050334,-1.5536230057064484,-8.614655601525675,-18.48828253877509
208,7.907625053386057,1.9783773054182023,7.378225175214872,18.36858502030791,21.386541235007556,12.438377329421208,-0.16491678982849567,-6.690598995986547,-3.44882924491264,7.659325066413649,20.090451444541305,24.62730503904755,17.61186057360549,7.14971424669103,4.047862894208187,6.004262818615208,-0.9280315589930618,-22.165577066813583
209,6.526243403785238,-3.350764635787918,7.3039267807656625,27.150141302862206,29.51989505112738,8.765936750851152,-14.209259428559426,-19.534695315348046,-7.854169973034106,8.18146350839767,19.30229507863264,22.281966471288076,17.033613522939955,7.639877411018154,0.580018780697254,-3.5521067435689844,-12.133165991495096,-29.494389965673626
210,5.8163139092848555,-7.813899703090899,-0.6872305031917691,19.15404206805376,26.58091659618369,11.528849445198798,-10.579223075779716,-19.153106577709334,-9.762487679312565,6.569648905676545,17.495125318904986,18.315063404904954,11.733506352784573,3.9857531300833067,-0.2538571093495069,-2.4674185612220265,-8.885303998054628,-22.29971706128803
211,6.72361853469516,-4.087273486688701,3.3168942193963353,21.26475507649347,27.46349316998845,13.310857238702459,-7.561575048067162,-16.759301262405433,-8.905601846912194,7.799975614609976,21.125293272631986,22.980385259527118,14.118505037037382,3.748429352607411,0.5336714496880137,1.9234291728092616,-3.3287921506897793,-19.73333505345743
212,9.386864641986715,-5.489703134360519,3.797439158604615,26.07224538877006,31.22376103173938,10.40670051786917,-14.545092719147693,-20.155491982155283,-6.321897261157077,10.514579139470195,18.24281542058135,16.785124228506678,11.821462507855577,8.26227413947301,7.380127342087544,4.976466384787092,-6.22036367737301,-27.969601337594526
213,6.200593541615582,-1.3873792588160563,2.855725799869335,13.87875311668981,17.92385135224274,9.966444201716145,-2.4760917871172894,-9.647841669262087,-7.476556140438193,2.6849819470160994,15.37783639641173,22.1913513501055,17.965296731326994,7.26116474815886,-0.46870443572973414,-3.4282283038627726,-9.51672398137526,-23.493655325962372
214,2.7068770476100377,1.2547264147912702,7.921979747300049,17.574966024550573,19.06025561886921,9.347511034159432,-3.8098344348535544,-10.7462623718702,-7.078812487892563,5.24657008492993,18.60388081227732,22.991905410771793,14.88296191175883,2.7702960835273216,-1.914598060349566,0.21329214065605398,-2.7051147804919156,-16.166701999704
215,8.109686555886283,1.5993583788635617,7.480415915113955,20.6652956677276,26.026369502971335,16.194457757498586,-1.1541589152350389,-11.620536830616008,-6.615937952241376,10.260255148039358,25.78387666351645,27.592690409170505,15.955348842082849,4.093932403009305,2.856772616206391,6.268273590122984,-1.8925177024379785,-26.336857427493694
216,14.290316915524944,-2.7488132308743896,2.5747617120196025,22.265492928015274,30.237207791009055,15.616461339420598,-6.364523542537626,-15.051732298423076,-6.047311969496599,9.75517341268349,20.680096323296112,22.786268357160573,18.463570742332,12.276317145448814,7.34723532019368,2.3885867285655475,-7.35589972448619,-23.879622592214613
217,12.462738110014216,1.1920760053737556,6.172523674324154,20.212832950918738,23.899083675981814,11.410379519321307,-4.208414103629092,-9.043865013967709,-2.1285059261655386,9.017424578199586,17.95986553440808,21.43299818511993,18.417437186446886,11.622716101224162,6.118919895921662,2.9349393771759296,-2.847244303710741,-14.414846960907479
218,12.055713854502086,19.15003868564502,19.77320180321293,11.103148672877282,0.9472199280063857,0.3685527209851302,8.241773561668243,11.70156235516961,6.224908823653521,4.583769228868666,16.63459113577312,30.1999546262621,26.703677160965896,9.819216581700704,0.3719728003538906,3.408658809012107,0.5163297854842083,-19.00884834278217
219,12.876341366878439,-6.914310047211927,2.6635144381772777,30.737848733089287,41.576393991387796,19.960741589493317,-12.604277022803338,-26.10603740282084,-13.779006063366584,8.111168483914685,22.175843264327366,23.80647918610271,18.097400928883122,11.415173891674687,6.599604242261342,1.6874612053671423,-8.09699874185962,-24.668310971653458
220,8.285579301227116,-9.460718764383602,1.9915838129019772,29.619873878754916,36.78409178831446,12.185583110664636,-18.06707207590659,-25.546539458344856,-9.838687682948596,10.104509587462054,20.931491222757483,22.29436978122187,17.836439334897467,9.775743843146683,0.8035004132051697,-6.376806128999339,-12.405668893735243,-20.01799306799648
221,7.220504280796298,-1.673503635230094,6.5147683157412715,24.978077244719973,32.72734049195165,20.291352969655208,-1.1357405754045975,-13.67636615328406,-9.094361893071087,7.70466143040796,24.53820544224452,30.224760938670197,22.616671077803367,10.617777806451711,4.581424298164981,3.709229324885771,-2.5115678281334977,-18.877936925432262
222,8.326626223150841,-6.582126440060895,3.1426785731297016,28.31029734342382,38.829090994477646,20.951177506841432,-8.349364193325076,-22.67591636667064,-12.756760733701467,9.614391770694715,26.4472578838002,28.260436774115902,18.498763796802955,8.018138303214188,4.04195191547624,2.4254525860596736,-7.59735401783902,-29.4944755548957
223,6.89135829526012,-8.550561276859332,3.9002233015120797,30.937529916643783,36.82339109172421,11.50227852569892,-18.236785429073286,-24.312165487398968,-7.558482781265159,11.855404156482237,20.706867024900408,20.349543605710288,16.096233335536834,9.956186741504338,2.667941563142623,-4.853807985119153,-13.523983184893128,-25.165086710260514
224,6.520070269099704,-2.790520939862322,3.2622804002682284,20.00434624995455,29.243974102714088,20.281083197086705,0.6966705669075149,-12.486178943603623,-8.806872872979804,7.838587984771756,23.75792462854734,27.124316309203394,17.68947584690829,5.936306616398948,1.2744296515381388,1.4765512871955242,-3.608577940218053,-17.965501409951642
225,10.99415003135224,1.0559802311922517,7.786321947228069,23.212696290090783,27.170041947519778,13.668623584270303,-3.962498443962713,-10.707082134914344,-3.5795423414044287,10.795680217644886,23.36630052421317,26.534016867340352,18.716520775101845,7.563937535666614,2.5317122818212705,1.9424207877507578,-6.170529914166742,-26.916532962395024
226,9.123860806525947,-7.270070137792657,8.335953181854757,38.97077805792806,42.33013280084694,9.43096188166777,-24.41199565419618,-26.556934463897125,-3.552180675750413,16.24183112505082,19.676145763514125,15.53773180113706,13.716621688907708,12.78308747442915,7.656561607125222,-1.6391868695101008,-12.547376902215813,-24.917632212345417
227,6.16761499649521,-0.3760465126391241,8.466465407029107,23.662573997159456,24.952114336988995,8.917809206390805,-7.881824845079784,-11.032853601376143,-2.1564363508311497,9.384014483886716,17.866489246896066,21.023045299014747,17.24377832627559,8.537145184253687,0.9484977498278604,-2.8554817261091547,-7.393719512462282,-16.637579197823122
228,11.367783715990864,-0.5056261928089483,6.963694902353,25.48713049301456,31.628659888027283,17.06355486709252,-3.4632386464304052,-11.782065966582056,-4.158948563714591,10.66944098099473,22.438910704878523,25.363042857218254,19.74067620144671,11.73293017103368,7.715288349745727,5.918009953392446,-2.523071082055494,-21.164797112997555
229,9.50572108239793,4.517045324105392,9.602324843233617,18.427545948418608,18.684608653680353,8.884397522167138,-1.7753228087409678,-5.719247948841798,-1.826019749931665,8.354085296915251,20.702883090633293,26.65973392949995,20.28771960250043,7.630477445870636,0.5210848605301436,-0.4004768798752957,-7.389118049495657,-26.650645336183057
230,7.334460288143338,15.44424312996464,9.504864051104292,-5.133704034720014,-8.540357761777772,6.514064061241558,22.510316188887344,19.408161504060647,2.6129787817015955,-3.1737788271072818,12.030919036713637,29.0013909319773,25.742043608553228,7.147000156644256,-4.695967824743781,-3.4337109723208794,-4.550751923389202,-17.668684067430245
231,6.914307958393282,0.8452813070040264,8.630145791275442,25.440277998605527,33.55362792534739,22.43853527469319,0.1430347553920461,-14.843038113041704,-10.805657416684316,7.6468841323467736,24.764482431580145,27.860328172679765,17.990577720451157,7.184584130229335,4.564191156712609,6.183994841286077,0.7232361803257852,-15.366971456611042
232,6.028660127137049,-0.7511387470246645,9.541324413362151,27.300617538394715,29.362530162066285,9.91617118046322,-12.331310713469668,-17.048712795467804,-3.21755369250839,14.480519804266843,22.70557615653673,19.180220282186525,10.566687635295848,5.316836460029156,6.2747679593625225,7.0082214076149985,-2.711040001290545,-24.855482957782836
233,3.4415297944972827,-6.659541097896338,4.600399467223669,26.577513890266882,31.20787541775383,10.231737481027585,-15.55575695538814,-22.788592657888387,-9.397669312519106,9.955899732498679,22.02767522005308,23.139021627900174,16.09480585765549,6.25115942197303,-1.4032930260078504,-6.281308840027201,-12.805402416083094,-24.168103037784824
234,2.9991259071115683,-0.004650090397881375,7.077656198958351,17.907765174556626,18.713666001368438,6.408783230236365,-8.321175456195373,-13.629908971329606,-6.49651545941302,7.858659603667712,20.24843092901618,22.0899654471357,12.360624792348236,0.7534525370357757,-2.0444955439108146,1.6731090654916472,-1.1750225906667855,-16.011512340897024
235,6.984183545971359,3.6924136762720847,8.428741154746566,16.60161719910769,18.382148879654817,10.599450340107678,-1.3479201118243835,-9.504483260386726,-7.797272920898212,4.90358549896857,20.843000474684892,26.47496594729347,16.558374309012194,2.692519106629569,-0.39368795279742663,4.117469776117456,-1.9279129024828088,-25.43486292485004
236,5.711672654777257,-6.637080905755172,5.259871882710406,28.229624431385805,30.497820218129107,5.309084110636171,-21.661509760032985,-25.988768142254425,-9.637952778449105,9.665545172117438,20.20554592721628,20.96107549977189,14.660873773449207,5.2094273624567125,-2.50993369517398,-7.460935762176932,-14.828671690484128,-28.51645462742994
237,3.2687033432029917,-6.530643554658888,4.7663362711922295,25.849259145755166,28.45716077047952,5.640480525730886,-19.82998071918659,-24.362936121732613,-8.285371771105417,10.945523304203913,19.74502350062611,16.888983728911413,8.286151166253667,0.746385596624328,-1.8081627003096656,-1.5741576547959542,-5.3331783322945645,-16.134902216579107
238,7.674471409687,-4.672239511791666,6.070618393751151,28.836974674993304,33.81900346979838,11.614448266912987,-16.101851207328068,-23.86841720688947,-8.811382579144697,12.44153923603512,23.626281952399903,20.71822045617284,10.46974896601868,3.1274633858303056,3.717956903167504,6.357534980881629,-0.5566684009481304,-20.21243790146534
239,8.27262847309045,-3.6336083553677327,-0.1707259051637568,14.217249815631662,22.224173864619857,13.90941125295843,-3.6449669654557497,-15.07116623044957,-11.216804699507186,4.25201929866764,18.969458472569137,22.264171206648168,14.290521058382641,5.269488292878641,3.4749353253929045,4.488032427289584,-3.8697693263480173,-25.17919240543476
240,2.340834711140404,-4.088035596007011,0.9829645725078828,13.00764799531622,17.976119870894575,9.079695932266617,-6.778174235420828,-16.8189400009292,-13.084097708842169,2.3900672662224274,18.571568665030565,22.936220923761272,12.836618339884435,-0.8092231025366761,-5.568450056097513,-2.8149149245016942,-5.3418617289057835,-18.880239060065932
241,4.75716345934513,1.1192684245110758,5.6770133208114375,14.14609865875221,16.2636155572256,8.422885374849141,-3.2839894941824985,-10.02204368934511,-6.773751120278265,5.21863891457872,18.097724660736006,21.65552895254909,13.31763418860769,2.8018817701714585,1.0735568924688443,5.116658243116482,0.8957910507555863,-16.76251220679557
242,9.086792254146753,-6.820508569685006,3.3164088868292456,28.588606814487303,36.72601844502705,15.95685973767875,-12.55859213937466,-22.586591283467488,-10.28105142748287,8.9989520935555,20.746805327732552,21.66753593751387,16.24304823409739,10.47718779782185,7.466482208270622,4.3342612058123065,-5.706656829911958,-24.886215916471254
243,6.177385175166053,0.3403258449218004,2.351073620252471,9.216580261410027,12.545134683439763,8.771042643928405,1.212770474635061,-4.87099185440215,-5.4127970923812185,1.4970579656435774,12.786451158358807,19.99397416023884,16.986946185285472,7.811123722240478,1.6550395816278665,-0.12577831246709054,-5.67649606758761,-19.404297069872296
244,5.24660471902803,15.012934653717647,10.760910840250682,-2.9508116678126286,-7.157141325385878,5.411721004245865,18.573285501477013,14.002766296195615,-1.9846549764771797,-5.317471101350248,11.950909288883512,28.709922672845984,23.470184265128445,4.12855892244716,-5.104180560236915,0.18792952723982348,0.3951913753819934,-15.081443501244747
245,9.31357815323865,-5.975474167120627,1.128073476624564,24.219402257241196,36.873780350439894,23.30307922061791,-5.067374031728009,-22.955422264507366,-16.372630389832644,6.392263332331609,25.097939124152372,26.51708635785299,14.7092045996351,4.364398135693767,4.1106451861823965,6.918243193457759,-1.3612879710893953,-24.191016579866147
246,9.399348744556832,-11.31990649989202,-2.3656552422213046,24.262690102857253,32.62074813417664,10.290152442567077,-18.41369041172507,-25.302096210038062,-9.103864876459728,10.835514365549518,19.664008088408977,17.432530851597893,11.084906465399182,5.573512268439032,1.9846881200970306,-2.028646886111043,-10.932414805845386,-26.556516770762606
247,7.221752192940015,-8.463539601635663,4.468854985450097,30.931050597690067,33.61728685315336,4.72036950364011,-24.926872594222065,-26.863503676282157,-6.087764680645128,13.497200479348809,19.137923030901938,15.232142676639551,9.44835107426985,4.657281821107074,1.3170333428924876,-1.4270055404377324,-6.993200085988474,-17.764143905817164
248,5.860957366371287,1.4834228285847306,8.565699190527107,21.06893818607795,24.385652546872883,13.715423522507637,-1.7825124402005113,-10.069093543641111,-5.9299461684685,7.717990433018124,21.86395325719793,26.043718312591682,17.523087855831786,5.938623537202172,2.623783122856807,4.991316128538466,-1.0703234380668523,-20.985460177741466
249,8.18741235610805,-3.9277085719100375,5.377776683740786,26.730470269042826,33.6332348342516,16.672625621277252,-7.178924505135813,-16.908816403983284,-8.271096740964985,8.43588153077686,21.606574128222015,25.317384315045565,19.89731330011601,10.935574426362043,4.52797278310077,-0.09194855011422655,-10.325607807816473,-29.56586730967086
250,5.0396320604631235,-2.576456150268124,5.003466519472905,19.301729665235904,20.764474793255506,5.669941632801061,-10.380002319663202,-13.250298641892444,-4.0821850193914955,7.799703956132434,16.017740517570132,18.24568143622672,14.061153466711877,6.542345017684095,1.0883387998820193,-1.6098290933655517,-7.506543648422761,-20.216381331266003
251,5.18812409652167,3.4367174952630295,8.000753351894334,16.487555980299447,21.310135167030396,17.308687182171376,5.976778693577801,-5.25819168899617,-7.262221506665209,3.5538567449636993,19.63712844304558,27.16396302485669,20.305717679913688,8.243631290934433,3.3803069660636536,4.6891036244303805,-0.3653745632116044,-16.988551056471994
252,9.643126716326458,-2.81473472308026,6.782089556557046,27.35809423088049,31.164308629180212,10.827678947950425,-13.268444537093544,-19.59887700724361,-6.882242753484879,11.531051555645574,23.314682331076828,23.668131802270604,14.99448309432946,5.43130861523333,2.1738840392973775,1.8987075287106305,-7.252063244963877,-29.772480820091154
253,0.13365537442037234,-3.918312271267013,10.773658331413461,30.059544605703362,26.487875668647895,-0.8784271349882212,-24.535203036029625,-23.816698833220062,-5.659714485932564,11.280136580215617,18.316916587473862,17.111749128517364,10.498201815755593,1.6988638144040944,-4.310281760363965,-6.694040292907922,-11.80570983733528,-24.029533123996583
254,2.282836333779324,-1.476595114627534,7.895178910001796,22.941339347999467,25.673793909260095,11.072827191143372,-7.368976097597834,-13.970569937631758,-5.644126189333678,9.362408871361312,20.673491166252017,22.14478971316898,14.70149800073932,5.7948289222348315,2.4500418601151477,2.691382481099586,-2.5787984992987667,-17.013596519378375
255,8.102337859266214,-0.9396678183909022,9.226244521195762,28.741405819105456,33.1390353116104,15.420962420100507,-7.394992712614443,-16.214574745767933,-7.4998922405740025,9.858790035128482,24.666230719471272,28.648807685035106,20.582206180468347,8.91947580616769,3.8436678978447714,3.6449665234327697,-4.399725438732834,-25.77654166406569
256,2.269307035266109,4.85112995455302,8.603487117064978,11.381018458381002,11.532137088842122,9.224130420224908,4.457349093029251,-2.004272942168122,-4.8740940385420375,2.4978807550773734,17.481388928671887,26.374052072609352,19.735093558713405,5.535844359669447,-1.2974574769090992,-0.31824717747366055,-5.977641232883424,-24.989792025326103
257,-1.1405343186901251,15.741990752158463,15.597381327143864,3.6028997665266513,0.5131689802905033,13.196368063232418,24.062751452976944,15.897114597868025,-1.780725696627353,-3.64046117032391,16.224760092728392,34.44169475506691,29.345268958669642,9.353205756176544,-1.5546080819308385,1.3328644738167432,0.09612929399157999,-14.984324562461357
258,3.7835812407390086,-3.483566555039969,8.51119450938999,32.364460930783395,43.01985496447957,27.37065800470858,-1.5681212705578578,-19.320131382636063,-13.398628111955778,8.30233761925864,27.546171872799285,31.6775103790035,22.33756779982075,11.222091019032284,7.008751712580171,6.203684595265337,-1.6957691089343956,-20.102343192998184
259,4.484565961507796,-7.307990387830698,6.812086759964796,33.36508367327626,37.950852264737634,11.420284292718055,-19.27759484490706,-25.361244135153083,-6.655588050477379,15.76713237404315,25.492289698141587,21.970872719675878,13.260973984231857,6.517630722357911,3.794009458376464,0.9772803140434342,-9.100784337138142,-28.550339706823102
260,1.3962522766196506,-6.454634272330427,9.871980128179297,35.85561431049427,37.50554225040063,8.170719730173161,-22.728671031107634,-26.95998756030722,-7.265653959436722,14.029731964086073,22.661744596773904,20.34985069577986,13.938206342862411,7.337878740166938,2.024610068625905,-2.4406791890996065,-9.060484299672213,-20.0277083510355
261,5.015682028997291,-2.1352535716782794,8.295060038936949,26.139011495855637,27.944539584489302,8.667824973636757,-12.96783897103178,-18.14811144502141,-6.044602299044312,11.539484238230813,23.30743108385713,23.8469090875931,14.562844557990262,3.7307320880891837,-0.1693754777790659,0.942332992641752,-4.114364565669131,-20.324056447689276
262,8.90027610548974,-1.6506455860504474,8.04377286373474,27.304156559776906,30.425634045387547,11.096706073276895,-11.669135231019917,-18.369270097585684,-7.523007697570646,9.994357233563841,23.467651838234787,26.603956625330706,18.95146074705355,7.8245570349920195,2.2230349636919464,0.7479788100600504,-8.253019127813218,-30.02402852460394
263,9.8208579915315,-1.7551449922791793,0.34526874806216795,12.670360776074837,21.28735835323235,17.860890071035783,5.6431347999277,-6.105133294163183,-8.616034566944252,1.8964035323947124,19.785891099441322,31.35675667903642,26.90382316140117,11.514461107932348,-1.3756128276419204,-6.970292737787019,-13.072181958570354,-25.84863985158272
264,7.949996005173568,-6.072573463174544,4.763482449517896,28.954325802847688,34.65854401933713,11.820769776826243,-16.509612992446183,-23.97804182494732,-8.797550382499491,11.388063162519682,21.64534093364196,19.977604119178572,12.210208492827972,4.902146958104814,1.6103374806311486,0.47485182023286177,-4.395939801973696,-15.798147479676693
265,12.408339415903162,2.0577176789487877,2.9826117186810457,14.312157320713847,25.218577493227254,24.38245630379331,10.172268884890523,-6.221227363057933,-9.377501389748046,5.139411481170962,24.335031899913677,30.25841057890103,19.751651109332165,7.47495180056837,6.553690037428407,10.73389934053994,2.214950539140211,-23.901837192559203
266,13.208099537881283,-2.1874639458363254,0.39841332527283924,15.300779649888852,23.212659444624055,15.051221773586372,-0.6498192974176596,-10.296973979646038,-7.5562064470968835,5.10300950557928,19.46756244851819,25.635257441668784,19.519078119032816,7.978469284705792,1.320520493563865,-0.4836238018107307,-8.039583235542306,-26.532342898881662
267,8.15925859579821,5.693784797305169,8.502248940493974,13.397614392953681,14.706671474479618,11.343124044221215,5.4760436659590495,-0.9411962971115438,-4.150489701095132,1.6232628250806491,15.776697573070692,26.55534313982122,22.89385495772745,9.304211794795865,0.15014325855918725,-0.6463186128235273,-3.90774915683971,-16.57866867626953
268,11.062153498888648,5.372945197205473,12.57038831983747,24.47205268630985,24.493159159770386,10.148889686891177,-5.492638561531322,-10.595493152572274,-3.9758955890870578,9.23627980324924,21.821968817018924,25.430784406474288,17.06294492615098,5.64803584210588,3.0741665920742274,6.651342417839471,0.2879659795922531,-22.438414130896017
269,13.821150262761293,-9.187097037164426,5.6407525138058485,38.46258086351609,40.514971495707606,2.4036994928912234,-34.502161995942075,-33.496958054439176,-4.018087829532197,19.72397566517423,21.80636775294044,12.663111300492163,6.138696217517057,4.586469983090796,3.7582424655348707,-0.26057528614613956,-10.75051124768707,-28.780256501996416
270,9.487272282310503,7.838905160407052,7.775526029931115,6.45540169311272,2.9319446640448934,0.8559148354127258,2.2385305673853435,3.614312713659283,2.9141909435320055,4.839959320403756,12.714405594646836,19.41265552105594,15.431256812880504,3.874453599955772,-2.9322406333907733,-2.278309174977579,-5.32145282015219,-18.61053371885484
271,11.199052540045436,3.6358613874146815,7.876445638085769,19.144950281316525,23.514817111562348,14.656404508748054,-0.4847184404374688,-10.008413443898162,-6.913313795057473,6.91127032275675,21.61494083584081,25.721116226521477,16.754389359864753,5.1316818238967965,2.3575699799695746,5.688616429735919,1.1519382047389426,-16.631982018007996
272,12.263638648286372,-7.173131311309332,3.088619135732446,30.62958795491468,38.72206104816245,14.229963398135155,-17.786551287551884,-26.47891909811575,-8.431874760993727,15.552246527029839,26.366558961192226,21.796604909441758,11.53627828820623,5.295837298751384,5.185702054105867,4.615525773084809,-5.816080640806228,-28.094222411660297
273,9.34791962288197,-5.82497959068162,1.4807508461869905,22.323339830288393,29.55888269704233,12.835639060556185,-10.81713094427454,-19.452324328288046,-8.71028675923498,9.577011009338484,22.23993884868771,23.724815028493023,16.14742685570637,6.18699626812494,-0.15160567362562827,-3.4346078191639022,-10.15359680180625,-23.80568735922369
274,8.462084903028456,-0.6058180261653919,5.359242388550557,19.88740852438301,24.855339097151525,13.15672911334619,-4.854439947224325,-14.293366843217335,-8.551972172896072,8.376117504946944,25.1592534950671,29.453338694523865,18.121598615845883,2.147727375231442,-4.593235939646171,-2.302781288487784,-4.317672733369919,-17.45506907469583
275,12.103253725740474,-0.5118012191477719,7.044407440085603,26.151529077040703,32.588740407713885,17.656024410414282,-3.788739228519882,-13.09446345201121,-5.60351695459792,10.692858702974927,24.79228840020032,28.748568305006536,21.59898255421304,10.919595051946548,5.5169852121156655,3.9007673235545544,-4.796069445031711,-25.24765488589233
276,6.655154380015949,-4.665576650259529,5.075049030924915,25.98551927325347,31.019357472382246,11.536696689947672,-13.07388890298533,-20.244819031081338,-7.7800094840269445,9.852590006029263,19.731841076097226,19.48233495972348,13.633767683799798,7.649009932300046,4.180715342771588,0.8010795526624608,-8.1956154728596,-24.793736314644875
277,5.8018701540202535,-5.059804541455727,2.2011570116378274,20.491552692025202,27.537456929069627,14.027845019278972,-6.768136488234185,-16.155890799807324,-8.804957502034833,6.640128468449498,18.68986039599785,21.244778713889787,15.316061626938728,6.977124380422508,2.028597409534275,0.07687064715838153,-4.738665800160405,-15.468032566323213
278,10.120724949027661,1.945147983740349,7.8049383833718915,22.138174138378325,28.37023318482429,18.89725492518004,1.702824592579764,-9.748963980893647,-7.741585727110414,6.100416539492316,22.16031401498555,28.53660150155242,21.393016152318392,9.935559074455812,5.704164239912573,6.857623128901662,0.05400430013132396,-20.063093207113464
279,9.159969060447592,-5.527198790565992,5.551534398880043,29.76751065225651,34.49224788953157,10.89911501828453,-16.83342861729152,-23.54264533148295,-9.066508600070016,9.846663128213399,20.442368515552037,20.659389319706808,14.190708571233392,6.843808473932988,3.310009122113381,1.3880170304586816,-7.474169763654106,-26.879563901353944
280,5.335643526385486,-6.240514796268532,3.053626456485155,24.00471996723584,30.47628905791455,13.474541408531108,-9.74990680551275,-18.52755500640559,-9.502067522989039,6.607132231465207,18.89384657642038,22.35076012264605,17.108228733098958,7.788821378294497,0.6345101635453814,-3.0098918869182043,-8.24427628785676,-18.734015696181235
281,5.190340570810171,3.0536328448496874,9.615488484128798,19.365906763672204,20.87032159029844,11.482859183718988,-0.9138593444268104,-7.3953943458847515,-4.100234700266722,7.705455247819478,21.248084760099456,26.167098952240647,18.115412718015452,5.91179023501528,1.8283146040731146,4.486536426396226,-0.08795042917382996,-17.84693399703676
282,8.55739459194662,14.188594746008425,10.227344902179096,-0.1258593531473577,-2.198581972101517,9.895286319118545,21.94069915217999,16.893597458088863,0.2483943190737237,-4.166182572184581,13.343254482638521,32.89504082127902,31.28873563136833,13.228807501380611,1.5025781291327516,1.6449389493129534,-4.3274425184941085,-26.506793239899196
283,4.313554797953116,-4.11901968189382,5.574002090859988,24.192377186484958,28.210379538599064,10.948417881601626,-10.747509214688122,-18.548400006373967,-10.394952739294027,4.234827234853258,16.462763546708413,21.52825841591716,17.940485657093216,8.974926630380638,1.09589172443421,-3.4683998515390364,-9.53386683203534,-20.955796739045937
284,3.327306477856831,-6.5575673620459725,7.433133940011787,31.587928688980853,33.53274598899249,6.69133677080093,-21.84690124771112,-26.13109353221994,-8.268795849553502,12.023062443363038,21.23415864874118,18.944328434272418,10.723153330254235,2.9595240467465636,0.1735800950754014,0.4318205216052042,-4.146335921481502,-17.32004362134121
285,5.699926635228364,-4.183552753382194,6.584125769445707,28.98991948124666,36.62762928364599,18.82665388189045,-7.989808046708826,-20.467971155059264,-11.252649983288944,8.902244732672703,24.28096666444078,26.28914120523149,17.611119433728323,8.357960646769257,5.752941205945483,5.538557770705064,-3.6082726313483766,-25.18227668327196
286,5.756435261305473,-6.70212615172487,-0.40907788423152935,17.63300522742545,25.100030487952445,12.111185013848603,-8.942682029117742,-19.21064585967719,-11.745368634153177,5.8145402749698105,20.26209596979774,22.58676125447568,13.648224229016133,2.8937316617390434,-1.400144341177534,-2.086195941420785,-10.017327442985899,-29.278663890631975
287,6.553046062403074,-3.6273497093843567,1.9505959618714452,17.34825015850153,23.785252386163787,12.772933801451732,-5.620341200503899,-15.389734825448668,-9.496430590669243,6.798523833778516,21.503469943583234,24.22726554820491,14.146166946965172,1.3323111188511758,-3.5785510412719503,-1.9407593961904293,-4.976015846322132,-17.849940900336502
288,5.721883220656999,1.563613708277435,10.5383901473328,25.086841224503868,27.622966573570313,13.234091973389766,-5.5346838731362835,-13.691737029793659,-6.665292985340592,9.738836561432924,24.764062561608196,28.402789138620147,18.928899923047986,6.192226999760286,1.4984350349004527,2.908199273167286,-2.8383960572981364,-21.32223476104314
289,7.869429764861174,-2.5533808725721157,8.389388285288392,29.313149140678384,32.14475907354668,9.820889321592546,-15.740634824733661,-21.560650340541997,-7.114113637682874,11.786114506581296,21.97046606136682,20.908385665370556,13.321574141512448,6.296172407837144,4.110516218303699,3.0024882005841893,-6.316091990559459,-26.886605153181566
290,6.009830606047438,-1.974281181211071,5.741826078098823,21.6016000382554,25.49776431047046,10.95595162349546,-8.105329216861234,-15.073454238955293,-6.91351326548118,7.618694527580884,18.4819245667876,20.405078383785806,14.191919721979362,5.947895639230322,1.8599657231323536,0.903552447207493,-4.393718329423623,-17.46408806057596
291,6.156248170726893,-2.765695977027077,9.101554670222225,29.923382225368307,31.93733917423213,9.043803972251704,-16.483988864714416,-22.30867185846461,-8.061157785323841,11.474075147727294,23.359685795623278,23.00396568267457,13.218779900731596,2.7003180013851122,-0.4633807078868333,1.2694637459997253,-3.700119872686606,-20.41140505546901
292,11.614484386954189,-1.3310584966329975,7.373071505418927,27.434041413069718,32.08721316400412,13.701197405647285,-8.648592735445828,-14.559620035794827,-3.115754853721291,12.732234146387949,22.03876708453093,21.943544932901325,15.524116004610251,9.080419822043105,7.1520070415275425,5.924465202700255,-4.578159077343497,-27.471135845847623
293,9.184331326734924,-5.143019772702796,3.894632291649951,26.51054908971531,33.75444044837628,15.292175934472306,-9.695786035367462,-18.021392476132778,-6.923185329515433,9.807259470294197,20.190937352866435,21.9816963506349,17.949128398811137,11.104639063593751,3.942413246030727,-2.6843163140537785,-10.698950335275804,-22.05286981219417
294,7.383450797806643,15.337448731297052,11.753328147682433,-0.9630253371244203,-6.788485425038194,3.421491482831208,17.885457257157316,18.242240990105817,5.660883987100963,0.8138847379753406,14.27131806250703,29.519675979809286,25.702669062181457,7.547493688646117,-2.9571911704975,-0.31900342419056255,-2.0153466784999066,-18.312304739629354
295,9.973316361320396,16.802521427253495,13.636838084192314,3.13666609252925,-0.5267112378831429,8.77926472757556,18.710469015459196,14.592460087342246,1.7268744006927077,0.16797954639340756,15.879712199614126,29.86216202345171,24.00532529949746,7.001223957410512,0.5350708717749402,5.55500539410278,0.6883659433133485,-23.65483408585122
296,7.92989787144421,-11.510909795719673,1.993348543978011,34.3236420921593,43.42815540034258,14.329351682704122,-23.48621973992853,-34.064429584441044,-14.376215189955595,10.67544998198847,20.751381661808054,16.60641939462123,9.414473394583313,5.433777836609822,3.2463051549386304,-1.1651220138193483,-10.923673807831513,-26.542303777806886
297,1.4255079882175896,-7.176801855251488,5.232824298366853,26.96830495674137,29.278686012060454,5.141557322179506,-21.78215842104803,-26.393488719992884,-8.407570633861061,13.298624699028021,22.776089853594822,18.04055439432719,6.810071179507622,-1.717077868612973,-3.2468958023629293,-1.801199532077291,-6.049568817961453,-19.124896762102946
298,5.123113215467043,-3.9057209938082718,6.778332988467964,28.33935282577216,35.36207806319807,17.852199836148653,-7.999800610328597,-19.529896855654272,-9.813792685730087,10.357830206112762,25.318772980045036,26.50569729307303,16.82324532675895,6.851706341733302,4.251055250800426,4.906817055025742,-2.6176129838781748,-22.071289124527883
299,3.9499427957650743,4.275608665966695,11.466466624931558,18.707157406664262,16.07442563330781,5.107929736298634,-4.148049853840139,-6.1186096327486466,-2.142324016366607,6.137821700326002,16.817340076239077,23.16619646869975,18.85486393991096,8.23953246415462,2.034143106257868,0.7922093750960131,-7.429123905434502,-28.418715666952462
300,-1.8909716266248044,1.1757244761877865,14.255261988538628,27.568952730420115,24.393954985846367,5.126698819350553,-12.74044804185755,-15.929219543880086,-6.510338596999346,6.868264400616903,18.176546593429517,22.929789141421082,17.894897891127915,6.469015361355726,-2.4651310628170955,-5.50021106943621,-8.91025138261704,-17.87072198125861
301,3.418936905091068,1.5288032849043005,10.124090365661074,23.7704165847,28.200371204034486,17.476410557412695,0.013392760873811894,-10.582028509552204,-6.900025703193829,8.037918992438449,23.31364985626817,27.69447291467201,19.301228042733214,7.969489089531521,4.124113804010765,5.541597131184467,0.30144276288579325,-16.178880836092894
302,10.391544602710786,5.193633282865563,9.536416192336883,19.98266702347124,25.97347757845226,21.3069290061311,8.717883517963532,-3.0737587058113016,-4.597616930923999,7.594259555546348,25.265540454626443,33.23612735914614,25.05216357743057,11.257222058493086,5.848185893037146,6.65356653378585,-2.0303122126117032,-26.176275456227042
303,7.809036939183714,-5.027805756026204,4.7036997872283335,26.98618269349436,33.57016829640238,14.734707209348958,-10.723096267897454,-19.969426322788568,-9.009542576540772,10.001837647266505,23.969793308504293,26.81768839511383,19.48100991031974,8.265990470867195,0.2822740724093637,-3.747987591094733,-10.137854083695707,-22.95455369281045
304,3.7364897732330684,-2.4669184066211387,10.270515414686932,30.13574407819305,30.79664523317142,7.811280929203386,-15.941655156105458,-19.384721246638833,-4.5731206822246175,12.607759521291202,21.315861949836236,20.484508346739617,13.677410179178501,6.2741557743565926,3.0179063007942224,2.5263301824849527,-2.6711958635969313,-16.114034408378714
305,5.8619299972373975,0.1309096525924759,7.673600186372148,23.550265314476707,31.261801068107893,21.23760520763064,0.4366996632444877,-14.439424714957163,-11.162059892776572,8.014918280686048,27.470187093280927,31.2977248867292,18.71281247790844,4.902047543300678,2.952740788321362,7.036713560950441,-0.4114785558683257,-24.790924591267615
306,2.5400362333709072,11.4934660323377,10.886755077856924,2.599758648546965,-0.9355321101527767,5.992925746231393,13.051113899928783,8.303720583034048,-2.1596951085344425,-0.13086881584158566,17.741859811061282,31.257318530921275,22.902728155410728,2.715687356305635,-6.304227467184129,-1.9675195374967005,-4.823648959610626,-25.021386965268803
307,3.767409465527307,12.563834499703157,13.554175696322991,7.354681502729195,3.326380122413348,7.001635976460286,11.53327097233926,7.31819923956105,-1.7410751136400364,-0.7387346572598236,14.549084391741886,28.023005802968918,23.3542184199764,6.619241491896711,-2.846055408880081,-0.6524823296584046,-1.7841791189883376,-14.9872279681723
308,6.253884763616416,-2.345915070092556,7.206749066301998,28.463954831499873,38.49392706972736,24.36687085093551,-3.1134739166318655,-21.007571274249752,-15.625174524118558,6.982682804211134,27.85697507279975,31.72497104281857,19.66138508401471,6.314909619013965,3.1955954102073383,5.55758491673529,-0.9671489806733656,-21.058751186373744
309,5.013007481083384,-11.021532049092784,6.947891401203882,38.924780961302574,39.00060517669232,-0.08346600448743448,-37.52386849661639,-37.62980699995221,-8.48257887147537,17.921337688216617,24.534288204452874,17.20919877544323,7.28354005877336,0.4744472610287562,-2.1761741327624815,-3.9737170573811675,-12.177392554955176,-30.102297738507794
310,2.403814968758723,-7.749759803301737,3.381848220314687,25.304729582870085,29.733569958233552,7.87415523554936,-19.10784792291452,-26.39032293020634,-11.320512206049864,9.689888385785256,21.04523850700536,19.251792810907112,10.164618538211824,1.8578878149904023,-1.209019421088681,-1.564759232134852,-6.144749747391897,-17.838910799379317
311,6.289370845965375,-3.9758318531081884,3.8194761585612755,21.87048185415589,27.57976027033646,12.16650704787247,-10.068806410892838,-19.37738815040155,-9.8502695076293,8.955794984932934,22.744565344909773,23.010077733946858,12.3523819561515,2.08065527754651,0.9384257941342413,4.460858121999581,-0.4126244793381063,-18.115319554890238
312,7.310400331787726,-1.4080457247582499,4.671102776296434,19.085176467960952,23.881977910775518,11.993805588896187,-6.08262385958987,-15.195151571995892,-9.109378501788884,7.0693323943911235,21.82771751012008,24.878299045257176,15.630786149842455,4.781031486128119,2.4631851745272746,4.350983147455371,-4.217266572984895,-28.10038958280143
313,-1.9142181913374998,-1.9596532534704048,9.079266968178976,22.177028739410847,20.403624686808524,2.6469800599311855,-14.96195092558894,-18.623738300729208,-8.753158976228212,6.199526492134065,18.288130580238583,21.58601337229078,14.207872739701711,2.3026151963762915,-4.564482596332004,-5.476548602430871,-9.69884908037791,-22.577446353481612
314,1.6714443201905427,-2.6707544286224754,6.766855918452059,22.91704380009875,27.182572988262812,12.997947986318586,-7.139190406639148,-16.546653361246605,-9.755337521669318,6.349421566316244,20.192311403837486,23.065398141741724,14.646208636949341,3.6050608977796164,-0.8946598754773192,0.023699132101674614,-3.443186844850217,-15.749185815511078
315,6.935841109168169,3.5640909604325266,9.496934846684038,19.11252573037967,20.65201702668852,11.076068669616177,-1.9079630867150763,-8.805191110830624,-4.741715523383943,8.992406514053872,23.844979789107175,27.722267917170733,17.109551892747326,3.7461646296935402,1.2158503264350404,5.46811502132585,-1.5597694139141909,-26.364793506183435
316,1.6405452577745505,8.288689366940497,11.047570535006312,7.590213834616615,2.131212331984803,0.6512801932222773,1.754388006447525,-0.7449640595979368,-4.651179895810765,1.2922680618777234,18.78136003299011,30.48582617673406,20.60235392619782,-1.5598466100791348,-13.050181783615058,-9.902570586964721,-11.376575624321115,-28.512104668499763
317,3.3407036920737103,-4.638222436952606,5.877736828783739,25.739026352596778,30.758754980982715,13.298661811241075,-9.809000624106972,-18.750547621876333,-9.899304340594478,6.867504943233799,20.37160786712312,24.149947470111858,17.57016727353242,6.350195425218434,-1.587357686154186,-4.58108516405256,-8.766568593788813,-18.530242726823708
318,9.25896148141031,-5.2430760757158446,7.926760583351354,34.52639246852066,38.61285011764294,11.497770528713415,-18.270437379317553,-22.37610706786174,-3.276205210147388,16.74997160989583,23.437044926051254,19.185813551927673,12.566698295433886,9.023574669128356,9.000990835126096,7.835851891237239,-1.703724320080624,-21.466973860585632
319,7.724358001402781,-2.2765635048294923,4.573410679954625,22.076452989113257,30.004280270720848,18.68494503406283,-1.5215329246604508,-13.29627029927768,-8.807320785810564,6.519641938479089,20.862830928358647,25.027128830694537,18.743266322306837,10.138859948608088,6.549094400874694,5.058512548063845,-4.419252615295054,-25.195462611429456
320,8.474417529566553,5.323007328523573,7.745924639616969,10.456714771870718,7.014472068509746,0.5911713993762968,-1.5889817188829825,0.6791911757074065,3.1190649116363716,6.3657159920680035,13.347968049982041,19.628137204304,16.957606940827993,6.802483083235972,-0.22001778947304104,-0.8639418121784482,-4.667276337224844,-17.82471737301946
321,9.560934548953995,14.234744132851752,12.298313101550228,5.9038859857368164,4.811217993582965,11.924245047063085,16.970663485331624,10.429199813606466,-0.2602186029265582,1.849612938779731,18.72850669401341,31.276515848382893,24.130826449602544,7.219221099088724,1.1295159946356688,6.559747095100976,3.8923918714072125,-15.770154263714142
322,14.85382002546294,-0.6643859648513185,5.3667307614337805,26.261707113135344,37.21802774327017,25.00571146713272,0.7661389268549221,-14.440869026056228,-9.930454272667008,8.522669999961066,26.426075460166214,32.119959286066866,24.722410283304875,13.392062237393965,6.9999002398965535,3.7623758329097208,-6.117419169895963,-26.553209816437157
323,12.954205055103664,-7.373293504616602,-0.5995571078689756,22.668597624275286,30.355631592100057,11.309239915210963,-13.298494067722112,-19.043459724728358,-4.7991246712092135,12.995562129409917,21.52153278312651,20.06114511060023,13.848174286830746,7.545924383345549,3.22033709203769,-0.8722109684640054,-9.496883989951133,-24.82907335215607
324,12.32340915974499,1.1427848246525742,2.9738941021828293,14.430467363880483,21.833655217599315,16.585403054063935,2.440654007377821,-9.166595018720189,-8.044563002064644,6.99953803788037,25.085038210982702,30.669634618999307,19.102729470391377,3.0127611642231815,-2.2837943794668543,1.8491302374865715,0.01820854078162251,-14.723220541609113
325,14.838307945422095,2.3965172538353263,7.420648222303835,22.621710745076257,27.941666415116664,16.19499989439634,-1.2456147446777222,-10.026224035640507,-5.2705882085261475,9.072997705556464,24.20332707644978,29.88335736285522,22.288729746288734,9.972457813743686,4.8203934885774995,5.528365796961354,-1.8097317410474216,-23.276634636603635
326,12.80382383345561,-6.67372431032638,5.777788510303092,35.013712184788716,40.176159805547165,10.112064816622643,-23.367289053775785,-27.48171130889053,-5.281934867596636,16.17959654898499,20.582146812544533,13.895172564381859,8.510073114090888,8.35439237726842,9.563410572429543,6.947222153476614,-3.015478995516159,-20.307889916675872
327,6.986942333290617,-7.168487375504251,4.952496258203553,30.282146326924945,34.37546152442344,7.891938277493253,-22.129448914784444,-27.038091681553265,-7.6258056666030285,14.01768901549096,21.88475227651871,17.130181954456006,8.9124393626683,3.82249543107167,3.0021251831930518,2.815088041439809,-2.5139240722251155,-14.94575405563585
328,9.848287813042932,-0.027792645433553663,6.120815890397948,21.864121853291323,27.86564545117534,15.771129568088382,-3.50557473586214,-13.237336475161491,-6.66854267508659,9.787781104812764,23.45103905191654,24.934038442050674,15.573472200824257,6.472135713804189,6.322506633527705,9.688040928423794,2.3792804944669563,-19.73432343075678
329,10.36433522389145,-0.4608202609710832,6.192845868268138,22.235346647301668,26.332636459560792,11.817769890973272,-7.035216368351423,-13.773846481083105,-5.5474365724796435,9.403340794420863,21.318327380217312,23.969892225536814,17.205885178019212,7.908886975988293,3.63353747192162,2.5355418859606016,-5.564949183488418,-24.855452833223584
330,0.10966627701625342,-0.5207655380722755,8.850060720830145,21.03021761744946,21.327111313281844,7.3280554996591505,-8.660771030747352,-14.392977886638642,-7.789226938478437,5.899358716455122,19.159174282451243,24.195609556084797,17.483684080993605,4.897349321505741,-3.2820413824914336,-4.831022442961475,-7.703914719934924,-17.20936921256024
331,8.44571128445949,2.7903346525358397,5.602198819328546,14.570091624123593,20.716147416098387,17.616498521887046,6.587182201338612,-4.34286959063017,-5.607812374391792,5.960452056473557,21.783115528792354,27.61250683897746,18.813806717809133,6.619191138611527,4.012295946077205,7.845096227853725,2.693770977859217,-16.97671444538352
332,8.783185821398945,-3.0319578033277836,8.718021801050183,31.063404270425796,33.48335553253043,9.631580080893448,-16.133370984916503,-20.720971743598817,-5.540425902764958,13.193261636501878,23.733545625309,23.615713458917153,15.773328190594059,6.908715831166539,3.346989349230363,2.5050624502246603,-6.466438793588809,-28.032909014707656
333,3.4775595008577396,4.993591850541075,12.172965429365297,17.607252154873237,12.515846230124499,1.0823011484714884,-5.614903833402468,-4.616723065041748,-0.5479149368555281,5.45735136981596,15.040601748582608,22.81124420063917,19.53215359425124,6.614833856481776,-3.790590784216423,-6.560229042822821,-10.669200684606599,-23.116711775265536
334,10.557125381692757,-3.9578354561589286,3.0720068072078988,24.679836533984503,35.51860309993942,22.748623714027698,-1.2538446257417992,-15.272537491134763,-10.333044881923014,6.413630232067598,21.740928337942826,26.636512989080252,20.826298269009904,11.329432503729238,5.359108015753857,2.6977620674633283,-3.3519436929156803,-16.224249804429995
335,11.852217356771767,14.409507997881454,13.192622304231332,6.676759745222629,1.201263072607017,4.355995260590888,12.839322218189459,14.819578293835447,7.767739888558269,4.593296712439081,14.563827497010383,26.85004661388585,24.93577137547467,11.541289989703802,3.793874263086234,4.892344015740793,-1.7157646710152348,-24.70614781612762
336,10.035440063977818,6.183142048143291,5.806975017448837,9.348048436394457,15.275869612827583,19.17171393175032,15.164581679820731,2.98442717483632,-7.165903700981725,-2.9368267880210595,14.56841376086923,28.95462451975426,26.77648478943348,13.175810739633462,2.95040118984083,-0.5717891008637115,-8.260142575035138,-26.25767958555367
337,6.586874831630474,-10.773021658852235,1.9927776958299226,32.75194512612753,43.54276622379247,19.463628391539764,-14.712251753333069,-26.63807356071513,-11.190261830703012,11.753353006274063,23.60349112126945,21.99217713421919,14.47391681577215,7.388972632655385,2.3705272897119207,-2.0840578343783993,-8.78247478033892,-19.29908957982577
338,10.623177386987107,-3.1451506835400935,7.686413611600693,31.660698705593525,38.16227034808799,17.99170359079246,-7.599292921933577,-15.458467867861598,-4.019194205583265,13.103066937626636,24.553785702265934,26.90603537212857,21.617626367773283,13.468211770324102,7.771229294814701,3.852267689419482,-5.516727629128858,-23.885384609369833
339,12.626137677271897,-4.490947527895427,1.600720155178967,22.73690506043574,32.23731925263471,18.47212443968702,-4.297186238023947,-15.562605514542991,-8.902446450450066,7.613186527560745,22.206257318702146,27.053366133385957,21.34989844271956,11.313157434502893,4.170187665522522,-0.6128259086049338,-11.03652575102033,-30.949088438713428
340,10.596220659801867,-7.703988814495239,0.8886979633117608,25.124701635804893,32.28052625600602,11.869305632392583,-13.452954074012965,-19.11463631007117,-5.558622129503914,10.10244625346092,17.119438934452912,17.269319115361665,14.922356584816304,10.858280641559537,4.985370565864986,-1.7946580904651865,-9.741225409941652,-20.200924934440888
341,10.470702575104589,-0.3162013892162826,2.8410392367602286,15.725394523484363,23.12672039198852,16.531915741803292,1.4418001260508535,-9.77950858985,-8.259132354986097,5.526778469799878,21.416885455818658,26.57721924196904,17.713000376541583,5.497282953707968,1.9657858716773953,4.406922002531523,-1.478511218575587,-21.169501094983563
342,11.138984275716707,7.541840126599186,5.165466232499571,5.347393053998997,10.302675032520963,17.12295663414198,16.745321771490765,5.387237939295041,-5.43176411926781,0.4269388686369981,21.200637709168912,35.10318185771591,26.862276898027332,7.876026854107958,-0.4765758462577553,2.1037548825427947,-4.784719989905106,-30.259095285103474
343,9.027082145114193,-10.932333084043517,1.7672098438134654,32.54505528689865,40.02128324256722,11.512001248428529,-22.572786734330016,-29.32490470146148,-9.833371836101577,11.312979518650193,18.700081277061155,16.456609557213824,13.236903524428483,10.203744446821723,4.717402593477213,-3.182702635087709,-12.075683953318288,-22.401576530678117
344,3.1805340638822583,-3.223124455729939,10.356221261128962,30.739143001154265,29.421336703227112,2.516470168601481,-23.46370869786403,-24.762060747350514,-5.282481394701442,14.35235259693084,20.862971216926525,15.623824935713582,6.601233019250512,0.8946257537877234,1.168545402490468,2.929287832484615,-2.660043086210952,-18.42446707043729
345,8.691392937276554,2.271473857134543,8.258258049190161,20.763101267485634,24.595176340522592,13.870844229802769,-2.759658544547588,-12.229336470901941,-7.6619358700661415,8.076278891174239,23.822058739976093,27.169947890134623,16.24299934771597,3.511322538216609,1.5697809446804314,5.646934420705061,-1.666021737604602,-26.26921332217396
346,4.359355271517231,-0.3237885700173525,8.518382284559406,22.670998263062366,23.699294094442852,7.787394015086138,-10.073771357812559,-14.746750825253631,-5.399238551754112,8.626171028893378,18.476901654799516,20.13952004802318,14.548154000149268,7.11283850697676,3.189523588560503,0.9768961202324987,-7.534858658684583,-25.464861277224077
347,0.9895793748642376,19.327673219177637,19.087755223026964,2.0511741356484716,-10.502587961530079,-3.8344799671570597,11.754420414380744,15.497635718538602,5.462237584931582,0.9009153419708673,12.708634478503237,25.547092740433417,20.135100636686563,2.6780671721714797,-4.724776617693484,1.441957176244232,1.2964163971301523,-15.516565635331574
348,7.767005816182648,2.5651445219320164,9.335036563617487,25.076863279992338,34.93286494482204,27.024631952011873,4.941914934626889,-13.952738971903303,-13.625197019285503,5.464081481327236,26.231828898868912,31.50910963989903,20.839211757614866,8.954140622718127,7.249777712091089,10.125683809235893,2.9567878896489654,-18.172833386307065
349,9.123103255541666,-4.958407875289534,8.571459402013842,34.85342134376022,37.33778231564675,7.758845087091575,-23.69400946362481,-27.086958100756444,-4.989842232157842,18.218422628769787,26.01569628198564,20.41596377065085,11.407809131683335,5.844246759140973,4.423720801677606,2.124221897259589,-8.45184121571712,-29.20719991119626
