,Fp1 - F7,F7 - T3,T3 - T5,T5 - O1,Fp2 - F8,F8 - T4,T4 - T6,T6 - O2,Fp1 - F3,F3 - C3,C3 - P3,P3 - O1,Fp2 - F4,F4 - C4,C4 - P4,P4 - O2,Fz - Cz,Cz - Pz
0,24.98132307198183,11.764816609481182,-3.0499898613627634,-20.99142715095559,-32.69719637266551,-25.615286492304758,-5.2210326510166265,5.152076290442918,-5.49468886016736,-19.05966406938376,-14.931834550227391,-1.2883418098810502,-1.0773435882335753,-14.742567069875367,-20.870119316256492,-13.709320076907153,-14.29405370036721,-35.23780209303558
1,27.830209939382307,12.266578323113922,-3.6965805732986645,-21.93872724629472,-33.754755663710355,-26.38819649237441,-4.997826173578413,6.458860319767507,-3.8745689107815497,-17.789630182019835,-14.091017407979917,-1.0462059357202427,-1.8638166538321206,-16.18672014981268,-21.556378598671266,-13.056832430782842,-14.093239214890067,-38.01038421246509
2,27.87971002096029,11.428493940244621,-4.706568102507346,-22.7581274292795,-34.50979448353243,-26.90247893218295,-4.815888263333514,7.106252685663626,-3.728593178501657,-18.545803561927745,-14.958881680156098,-1.2045677837516993,-1.6160698123571489,-16.373002125699518,-22.382685982078474,-14.30263028032405,-16.13101431529489,-41.674480443069484
3,24.6186452776271,10.84699081755453,-3.698261266273296,-21.52840807875022,-33.88945469898566,-27.008622528667477,-5.5136700090620225,5.926524391478618,-4.988222105632424,-19.05125259024011,-14.195575018932164,0.18995415997417273,-0.9319694661908949,-17.03877304679763,-23.82022047701076,-15.783971588331008,-17.84571171928676,-44.28910514179015
4,24.39389504670464,11.085619068850765,-3.3643178835771437,-21.83019718748751,-35.39939672214717,-29.32719770331837,-7.367581920109374,5.468770161646128,-4.374270255036351,-18.400441080697174,-14.005219335804933,0.27375060227230275,-0.6614021887643984,-17.125233721566936,-25.17554449082094,-18.57295585672662,-21.201533971944222,-47.28412017785542
5,23.468395590808335,11.318070782372141,-2.81136939522375,-22.029991785453984,-36.79001608307989,-31.386646506256795,-9.111496908405966,4.717248670757276,-4.161408856404924,-17.839662489204173,-13.859200496876374,-0.36593311939122913,-1.7725028948206942,-18.019991356763608,-25.61349261781624,-19.39595428648549,-24.105741755781075,-53.75684243597875
6,23.092458390021118,11.150926503875189,-3.6681986549311705,-24.049724176875454,-39.19801826316819,-33.02717495281291,-9.657348955736333,4.848979525959593,-3.669414982990075,-17.174811862933275,-13.761633300452642,-1.91918618716757,-4.996118735865813,-21.168842065367027,-26.6609786084759,-18.3446034512978,-23.348671194311287,-55.78100037865809
7,21.955468892317995,11.176364806695195,-4.502400202529426,-26.800376714677252,-42.242051318049306,-34.222370655613666,-9.21268492790434,4.9018382031211365,-4.91288046402267,-18.518726168530577,-14.124797760044467,-2.1520229038820884,-6.4679197868923435,-23.315237673280148,-27.41609984304966,-17.21962734456955,-22.870610646520646,-58.95350640123442
8,23.30519635367522,11.221304351192208,-5.0351789915959895,-27.268647598193027,-42.425484603868206,-34.16901320356652,-9.196336496862148,4.410863073686986,-6.025325564534003,-19.483809826171182,-13.954755381301473,-1.0095839374940163,-5.714806157646304,-23.830842350797894,-28.515471051671245,-17.822805856919842,-23.136120987793436,-59.83512902240088
9,23.668067419065558,9.591071377234869,-6.870049052658276,-27.904782569062984,-42.25825587895302,-34.33238379484659,-9.81941925076119,4.12471929148378,-5.812831106919707,-19.797013122087026,-15.622487226708735,-3.3080641752321682,-7.020153632327477,-23.47715915211688,-27.45282899825146,-17.420321699877345,-23.934045699628257,-61.74640441854186
10,23.968375438547497,9.720881124610496,-7.282598449724143,-28.79468154898406,-42.859357392000135,-34.12891816800709,-9.286382142349972,4.212723359731965,-6.125091006286888,-19.806064883680946,-15.146778385299704,-3.041037080123835,-7.450145294729429,-23.961830994941632,-26.923635683110643,-15.936634543012477,-23.055608578521678,-63.09406239969839
11,25.508534593331888,11.895492142180162,-5.5428917856452085,-28.20513373098614,-42.812758104114856,-33.48860827337838,-7.755354235027547,5.95529109325359,-4.77853311987665,-18.728845079183174,-13.955312510025317,-1.7833617584171406,-6.465274881986131,-23.239619419758835,-26.00311490279639,-14.491049022071792,-21.271556604168218,-61.29517648173752
12,25.567796061448828,14.828210628160994,-1.5804722757208036,-24.944343381422232,-40.455457743661256,-31.42199992549785,-5.778514313539017,7.807322980873637,-2.5004461831092013,-15.330669834877837,-9.970422087067819,1.0631828844402877,-5.611247634906813,-22.847054359622977,-23.606659174693895,-9.722229684776092,-16.677029108496374,-59.64557703850385
13,26.12267894839425,15.499025781375481,-0.11650284129534093,-22.286272323397846,-37.42490492213057,-29.51649817866237,-5.490794831485441,7.6881034921891915,-1.5033143459494125,-13.153135718870827,-7.827821005968234,2.4074258611717543,-4.635474851610818,-21.70481077085014,-22.540313252546454,-8.89611031983297,-15.084880674198105,-55.86343885659937
14,28.238838027334765,13.60243626016343,-1.406983913725717,-19.694405753305688,-33.1693407840532,-28.14926768678298,-7.899396684820789,5.079298471397836,-1.2822034212646134,-11.241804834283542,-7.125508540690765,1.6033393734858292,-4.701414446813582,-20.10709929041773,-21.124549127545496,-9.106933471591187,-15.202706157530127,-53.09836219806752
15,31.374210223229497,11.634201481844444,-3.838040720456095,-18.7546511635465,-30.18952858190271,-27.321192050120896,-10.505108265816707,2.20891691909376,-1.32228220521769,-9.498916903924206,-6.750184440438295,0.18574287074286816,-5.277631895310207,-18.565962380449104,-19.588382948699284,-9.377309288331743,-15.140648894615454,-49.11878767555674
16,37.303755691864524,11.137931076564307,-5.730170578958408,-18.01715049566864,-27.86528707256064,-26.695966186232333,-11.826236004237586,2.0811299284186706,1.5631737890593178,-5.917036271342963,-5.85321092236452,-1.5386569058810804,-6.452513733172941,-17.271769076608393,-17.18835393515216,-7.7491890130117556,-13.739599209677978,-46.225528785434975
17,44.553441460109305,11.947231917358762,-6.641596728119889,-16.80109755814749,-25.217295340867583,-25.497846904929276,-12.47414170314101,2.3481268554828314,4.796177423401616,-1.2836465628445597,-3.103043658459523,-1.7087548665288839,-7.458407897363628,-16.745942104209437,-14.965835290326961,-5.280857389568908,-12.22039102375091,-46.10599686097726
18,49.12327403431913,12.599001612269591,-6.043232223992523,-13.656438974592305,-21.290432707375743,-24.060637586006358,-13.650976284836037,1.7740347542182011,7.204778422539858,2.887096748543348,-0.0026713735961161364,-0.5665735612548815,-6.796573515054163,-15.296174713144751,-13.245461985933161,-4.355149805924318,-12.101505034364198,-46.21894471044724
19,54.35849152939978,13.348791291600694,-5.832895541375577,-11.08696383227667,-17.560595159342196,-22.02592836472617,-13.699338300048575,2.0479511290526218,9.715844222108677,6.90826215665803,3.547902318517368,1.6896994910641416,-5.200326620380833,-13.716691126441992,-11.82441401766443,-3.4264132317343545,-11.58975773544652,-45.935663936143854
20,61.10154788909831,14.999607821242813,-5.83063910601057,-9.754044530590118,-14.936914779378442,-19.88457760466578,-12.699264456635174,3.1157610662728685,12.172951382781124,10.576622118241811,7.157339439199307,4.354376943921388,-3.365905399478734,-12.2093256632135,-10.47063895918983,-2.453797491458327,-11.383776040585978,-46.89087202364826
21,65.74621296343962,16.28251241041044,-4.967947448637762,-6.937929046751727,-10.909859258054727,-17.075124538437,-11.93551796185425,3.507376836549937,14.084594677091463,13.962539071109392,10.655407768716845,7.271198803569837,-0.6840298408921321,-9.722022953939856,-8.908614636118802,-1.8997737818055314,-10.26132089608246,-43.35504732873934
22,67.1877512301692,17.822255183652505,-2.3817376567724775,-3.0425785506111813,-7.038630988595751,-14.763492638562205,-11.097085465762584,4.360588882693718,16.025271661572184,16.757843470467698,13.701343217711353,10.566070057300402,2.9131859134855373,-6.716244437744403,-7.760560779387179,-2.360884398583997,-9.946634736339515,-39.7601223745834
23,68.58790965881569,18.08721492216987,-1.0023510096469463,0.5434407433605384,-3.2176376216149802,-13.284960426154774,-11.813159652631217,3.9582932226557777,17.553489798246417,19.39482304989942,16.00708727437237,12.50054899073281,5.144765367938521,-4.70053066945542,-7.4334046481855465,-3.8271473228197928,-10.911818259992481,-37.674022385235396
24,68.8006921107468,19.636988997781675,1.826181422077912,3.8971668905158747,-0.7912156684881951,-12.688953104697147,-12.364922680451034,3.893630683273496,18.969199303532264,21.995265422314084,18.996143302327077,15.42111216760377,7.682236188405524,-3.2348389836863523,-7.679706196065763,-5.270325269668426,-11.687972787321215,-36.006745640458796
25,68.07839236080422,20.17877660024499,3.5236942676276164,5.939183984992106,0.34039777872101296,-12.938768040706746,-13.16957610227827,3.6774751727478754,19.718593050328,23.446755121596247,20.89592433458291,17.496658941686484,9.272716520146185,-2.8582302191110136,-8.560813755339058,-6.705507042617227,-12.92677129903619,-36.7331461423663
26,67.56708672828175,20.015686850768592,4.265184272225259,7.599358965973354,1.9311709810026534,-12.400759024933501,-13.621488385797203,3.023747103343861,19.373844058904183,23.461005947826767,21.450739518648614,18.935356375489544,11.244299483279143,-1.778891180447354,-9.757734925851173,-9.951918389672434,-16.315873311395656,-38.45524776085445
27,68.46307001523755,20.351317050711746,4.8931800390011535,8.911771194336731,3.2974919773639613,-11.69763916823873,-13.456075549280287,3.2712961835504015,19.987442982465808,24.382806427302636,22.808628603928888,20.93726595850071,13.481948895900278,-0.4100788062919886,-10.117316006443307,-11.779509992778594,-18.48345643738529,-40.041363994887654
28,68.53498668765438,19.93454127978209,4.7751785353438345,9.29397964888251,3.334328646248754,-12.570380153183278,-14.482984366431326,3.2151588595408738,20.82508294880843,24.989066375580116,22.65626400807211,20.793614543211934,14.127191177903482,0.41378274235938534,-10.590383335915714,-14.08004554070859,-21.527288720932972,-42.510447335979315
29,66.83317315620631,19.421270916329924,5.396765600743654,10.446505276460302,3.8602644094767378,-13.267633006929726,-15.674419108837244,2.726762908945922,21.27081542978272,25.601585242669678,23.014092706402053,21.464222525655703,15.53508057394501,1.5817472877701537,-11.317215381226257,-16.914506260786773,-24.514565979497366,-43.47084104925091
30,67.11828152668635,20.55351816255864,6.785026778028665,11.298589586474368,3.7644627328241995,-14.002147919541182,-16.262616810373014,2.9397407998058864,22.41803777465373,27.359499569832685,24.860039401405324,22.85943490601564,16.08037057628261,1.2135036578108132,-12.261543769822598,-17.901409374540485,-25.109651205154442,-43.46282016050972
31,68.17174856568604,21.010282168837247,7.510863179783544,12.479861470908196,4.536969452153215,-14.187419357860898,-16.687261585264114,3.3957909433529063,23.991532073386107,29.442003466891784,26.858807497419527,24.44623827767597,16.88924509643243,0.966814531449361,-13.343307747809884,-19.333503905550426,-26.827562661245867,-45.83555547333439
32,67.09963877443928,22.23462119622573,9.880969737494903,14.59521159153472,5.605015327899145,-14.209689926786575,-17.423219347736385,2.578347411396653,23.987280906672055,31.016932888928686,29.850145193602877,27.50602250419084,18.443559900757492,0.5655636898134069,-14.790524236928256,-20.644641525490822,-27.55335163723798,-46.08851507430103
33,66.13256678188374,22.346764603193826,11.427250032995582,16.992919181143552,7.08361728699541,-14.87999238910604,-19.527076323154706,0.8483926908946028,23.698345185432913,32.01095217197342,31.607022931478642,29.61077587144345,20.164993869570957,0.7826004313769317,-16.66925435207334,-23.825712107585773,-30.24816399804169,-46.875268825391586
34,63.591544026142714,23.106618613984622,14.476641285300575,20.5980757203027,9.490835010018,-14.241510968700403,-19.701016695452946,1.1667201886673007,24.84887189584279,33.55746359723336,33.50300117578742,32.388689886839614,23.69530172155515,3.4752896374858793,-16.61572097068037,-26.246636986108985,-32.615883731338286,-46.57874995438826
35,61.85278628236349,24.428712939502102,18.047982035486065,24.646283993964392,11.88052718407765,-14.178839704249834,-20.339391437132182,1.9581071291726577,27.27131485463493,36.01591549522706,35.10157505187968,34.18592767823745,26.806231941741984,6.735673884946487,-15.751942320680984,-28.289810595568763,-34.62795541119893,-45.082623638901836
36,58.94287105639717,24.502270287838424,19.234570609472193,25.290589394806528,11.857833906904988,-14.02057784808114,-19.476952715212466,3.209564339537011,28.17570504313019,36.07670309341865,34.51664531920635,33.80740469741624,27.369930624868136,7.922268852835267,-15.159227447120651,-28.970069725623567,-35.752347583693435,-45.30222842465499
37,59.28215037661617,25.968178001093968,20.9855033544025,26.63037247841644,12.792461423229865,-13.072087145606567,-18.043707005724446,5.512854589142337,31.266471607765016,39.024915659445156,36.14249021183481,33.99678818909838,27.357570770061024,8.905747291421369,-13.288102415121813,-27.114335404523622,-34.296423965745895,-43.96788211184106
38,57.51830045101989,25.826822203526344,22.08043254968458,28.323746817270518,14.271308161883905,-12.430230714688525,-18.24265618126032,5.039470016830412,31.107196499964484,39.35539225402672,36.81867364881336,34.8671319456936,28.310291612197712,9.732826917200477,-12.757377037172738,-26.584983606444975,-32.866114418760134,-40.7018419173616
39,55.97618594703695,24.499488295457795,22.185822780809527,30.42918896222293,16.978845444354146,-11.239432318223358,-19.133671186209387,3.4406809744897258,30.28082672309475,39.39726780356271,37.05601452593134,35.229470739301135,29.261394052832436,11.052192299633118,-12.159360964057257,-27.24592289792615,-33.808847404385936,-40.54552147078278
40,53.88604625200947,24.227304779532812,23.31663828049307,32.50369771347572,19.347480425049483,-9.370100150739974,-18.21103693309871,3.598214709158617,30.131474312959558,39.34145662691422,37.680805336600834,37.33800973873555,32.83403977912939,14.318798757562814,-11.447583620807652,-28.905734691805915,-34.26988260337412,-35.908979394793285
41,51.81391543866301,24.60265688994521,25.136897944011515,34.637334598147305,20.974855389448923,-8.706207008667862,-18.485062704018592,2.9890526105507393,29.99739580627785,40.08114436437093,39.119107601484444,39.08159466480406,34.48920122417493,15.392484490097925,-11.328707037460227,-29.26807908539121,-33.536219239416845,-32.45126329348874
42,48.729321418882,24.69082712420024,27.238057751212768,37.136807339234586,22.518642265325234,-8.535313046136705,-18.943303639015536,3.090268729341247,31.071084537485582,41.35651651900174,39.61184778909175,38.77632954442363,34.2520508123048,15.832393520235394,-10.450740106243268,-28.362375536836538,-32.34445714914861,-30.301554069133584
43,46.948928572183064,24.599395265162148,28.55664695726698,38.946203731214595,23.454563200309607,-8.951210792886224,-19.506318037962025,3.975517398421519,33.29924852514606,43.02016136601153,39.25422222419425,37.159106322703686,33.37052286645418,16.560488588440165,-9.011509209266814,-27.237103321607,-31.210364292628487,-28.140584643413504
44,46.65821320115719,25.75507234224462,30.638178734951165,41.03498428344555,24.685556589100614,-8.673597701106317,-19.347326148131586,4.946861896640991,35.120056634492784,44.83033214736869,40.216663876717725,37.214141788775535,33.16459065040815,16.890257015197587,-7.652051595313776,-24.790893109326074,-27.889202545886324,-24.084479495120245
45,47.81092848986006,25.26569111884855,30.51470985075959,42.71987870583427,27.235916132539458,-7.316587555935793,-19.87918775553198,3.6949276075887374,34.50612565417569,45.07534108798983,40.8631150960619,38.10493046322651,34.36915284503788,18.03807675507502,-7.180494423368303,-24.814943506028825,-27.0579980657514,-21.00011018428088
46,49.00149165934318,26.19693224701115,31.622330610585333,43.93880747107002,27.755121876589428,-7.847580223532231,-20.489570331320653,4.29700907734229,36.336439296339265,46.8932343100111,41.70626526156961,38.206602454962145,34.447645072155645,18.276905025238417,-6.969571241663019,-24.21388151235016,-24.729447850850214,-15.615987804076015
47,50.73910306927917,27.405660727101957,32.45743521638906,44.32237994275723,27.57362291140184,-8.172730784779363,-20.09355684941915,5.847803682907972,38.558208484446084,48.90364016379736,42.91176991256221,38.41250636643008,33.84928771515491,17.71565958223564,-6.228780374826563,-21.58101183996394,-20.961696562444725,-11.825435196694876
48,48.92765268454907,28.90399733154478,34.28117905711008,44.530178492030736,27.46838515171016,-6.645281016140601,-17.574914841127363,7.0666335791364165,38.028582636589114,48.71621317151537,44.547076031438785,40.46926684160335,34.120603302670695,16.684000908060796,-5.615894697428324,-17.741836266459256,-15.773585368424623,-7.976762167222981
49,46.063706771520636,28.505257870675823,34.372167195135894,43.97818492390691,27.24238116134469,-5.3947360110506,-15.518611844213085,8.23205880250098,37.712348912549416,47.77683297877327,43.77531848582018,39.775475178162026,33.45065873130379,16.875292576528036,-3.5928802698581994,-14.15279158544151,-12.144488664823223,-5.621750926045803
50,43.42511872989605,26.241770929613782,32.79264689642484,43.451547150239215,27.474502253181555,-5.345862491570194,-16.17549368237009,7.419754828078478,37.41212970841815,47.509413825281335,42.45403448173721,37.47847569585756,31.684070881238956,16.698994060511815,-2.834706698342477,-13.572154303775568,-11.519631605787712,-3.8722816749386375
51,41.758292129340205,25.630552542137604,32.02592639141854,42.08695816644025,26.554765788820166,-4.928984448599578,-15.153653369924998,7.560749578949945,36.30951711911151,46.1782206434628,41.80858550122958,37.3103500148466,31.269172674311157,15.885022699698009,-3.492790957715315,-13.46730830653474,-10.385730210036956,-1.6048423873262387
52,41.171637281211034,25.488767440111495,31.974886209063772,42.18400005115248,27.352499546198896,-3.354474876457636,-13.659498595859164,8.112468002906658,36.042599711526954,45.830496965475064,41.67535506619181,37.11263200408133,30.988702258447816,16.13728414599185,-2.189790460737087,-11.537190776419749,-9.041608950514089,-1.8566381026056202
53,41.08931802171377,24.403304012901014,30.976165723047867,42.41583891372632,28.996560762756506,-1.0280889052449997,-11.462763600626516,9.741059143870144,36.78215941508737,45.370634982705695,40.26777243078701,35.915308983131574,31.262451215534522,17.997948729770393,0.16257649105277927,-9.686260068071151,-7.57738842716243,-0.11800239309166188
54,45.28225181898309,23.096136868804535,28.229115798587316,41.637641760315745,29.93533267130118,-0.32153082037939396,-11.376310129101052,10.217744017678198,37.52133306238619,44.747176640217006,37.74903943829174,33.48436834973948,31.109128762985883,19.52310238009836,0.5944111368003329,-11.767748219806155,-10.577381056722874,-1.7928886388601097
55,43.344663550485805,21.609684371141096,27.694848353863375,42.25471489188668,30.99116687345001,0.10727557269134898,-11.992698955421362,8.920659094959394,35.962916864585836,43.01343081957753,36.03958365365219,32.433082424503624,31.149712005142053,20.08208707958876,0.47717096932257425,-12.991610112185617,-11.951981079312123,-2.078079574769463
56,38.68742137277444,22.508525088339987,29.484427782204378,41.37206574673071,28.779083481928055,-0.11669775506523318,-9.939649063082326,10.398435405516734,35.19006188998218,41.659783461706965,36.21605347821342,33.38643215904135,30.59649009888155,18.076600978753063,-0.23351577005566965,-10.982651055166933,-9.661366193343133,-2.8761766285630572
57,36.196678996751075,23.668322947715605,31.172226834179813,40.692601098332666,25.992453344275397,-2.429917425171225,-10.107192807827843,11.553435484511194,35.92535412955961,41.44084010767208,35.58374706984105,32.42304718868946,28.795987643636174,15.788621383692888,-1.5409407189377242,-10.697423827547938,-9.415538797738574,-4.834602000328452
58,31.803499126862377,23.004950609814163,31.09872306403808,38.650007322543026,22.789445059993593,-3.991283524833336,-8.801621662148454,13.970953921150102,36.77248243954662,39.75852187438574,32.4537939731249,29.36125999363759,26.59399635579056,14.680861632416667,-1.5846117726243998,-10.358361926582234,-10.177057374971621,-8.009186484831096
59,25.32473577697951,21.680996392797393,31.271297321093787,37.32050828332817,20.424802310283564,-5.191017776859936,-8.357232699489714,14.159542085994568,34.942271991914254,36.399049549357905,29.528024639195188,28.012342082622908,26.16929162117383,13.778219747230098,-3.6646655890713196,-13.215756418493655,-12.857596933996602,-9.711126865516082
60,18.106382003813604,22.2213971750416,33.492484673826816,36.13132348725866,16.666227277196946,-7.4187640446676575,-7.653170253991411,15.054076405079378,33.305414126178675,33.12999734657034,27.57505321283329,28.33392069876598,26.78305240514966,12.636622183660483,-6.291268749298922,-15.638526077117842,-14.000315481895102,-9.332541410556937
61,11.789395077361137,23.310781788698147,35.79655052154353,34.95571639476027,13.641597622403474,-8.218153458134212,-6.017042346491146,15.535900415981736,30.755938616596126,30.02511678497677,27.065676538603466,29.941817773430998,27.465185156814144,11.163057141696136,-8.07239882383666,-16.022693325433657,-14.007278791190792,-10.934243415506351
62,8.878703346322824,21.535965346907005,33.82889050568968,32.18240462427648,10.923387026791213,-10.019553304155284,-7.4145133564738055,13.37071439668375,27.60364797933864,26.81408070857305,24.603119340055564,28.053984084877722,25.459761406150733,8.687750499521995,-10.766730857970565,-18.28927261513579,-15.034768810402726,-10.050195855710097
63,5.810497360867782,20.73944192267854,33.31947108816412,30.566672059890635,8.875991708654476,-11.133728152215358,-7.561163157012717,12.99894406266665,26.31929121944245,25.16955253679399,23.29154250803672,26.835979132945653,23.68857057778685,6.511988836655978,-12.355145296628836,-18.591441700626273,-14.296969291502876,-8.784444848660845
64,7.281872050461095,20.636009667613102,32.45346297698698,29.83419027183444,8.651149526002058,-11.13893521131713,-7.935299453613697,12.001951666991086,25.205057489139037,24.84955366563443,24.04783532066211,27.75273182156335,23.534712924381434,5.254982845669344,-13.375418490734255,-18.23081375215745,-12.861139808701465,-7.2342603504087535
65,10.34914643491814,20.263002464368576,31.659773445296644,30.686098247758963,9.96051533023064,-11.58163511802015,-10.150827963050114,10.029317397926395,24.88202931117681,25.73736532147196,25.084029566659183,28.50521334443556,23.913956076995245,4.899765371119141,-14.666862345634778,-19.699448512694186,-12.975091870283524,-4.814952579571432
66,14.6994179635415,19.73458888205719,29.41939419581424,29.82678816123001,10.73685846185163,-11.251224366871197,-11.801232413346275,7.264949475463724,23.151884130266193,26.002897603131768,26.291670545268936,29.07252900345933,23.420396499956883,4.1014194454117625,-14.970747669388015,-19.330597908454177,-12.15794246214076,-3.800245674887182
67,21.66522761999202,19.689592087083465,26.672500849191454,28.636629086295006,11.86432361992364,-9.94417393379243,-12.105984419583285,5.913656249058574,22.612706512636347,27.08524303776833,27.96921383251897,29.882081126038095,23.190020294446242,4.090342643684,-13.499755594700389,-16.53084574485873,-9.637051870796556,-3.2407968766903217
68,27.48987865575642,19.6154012861675,25.24379412501505,29.681217684410985,14.889840606707228,-8.010465219048271,-12.775353395510413,4.135556581616169,22.06470670507361,28.44264559753598,30.04360459886307,31.223095780955497,23.51583820591686,4.408866844960608,-11.965737842464424,-13.703241359941991,-6.948978688132276,-2.376900638360908
69,28.22386370094687,18.835632070862452,24.84915409107691,31.34522883050214,18.027567946724957,-5.804738897391539,-13.166780315894973,1.995916643777159,20.47858286881113,28.67705241587457,31.440040856971926,32.60131621780127,24.64284276311513,5.757104161514593,-10.246642841769498,-11.905375093077675,-5.179182304190355,-0.4612674671893371
70,31.794066007379925,19.13653378281396,24.693104684088375,33.26451392378742,21.491267966042585,-3.653063532625545,-14.005365307129605,-0.253197095309764,19.754759584702583,30.3693370714007,33.81633636743065,33.92881655682266,25.210441124512197,6.893547139914265,-8.109464251864125,-9.290082183681465,-2.32043517495309,2.9191072332117916
71,36.361593720450294,20.37294673705418,24.6233034632859,34.3135531102264,24.285167821283512,-0.8544129765294125,-13.156445695666848,-1.0481464479389377,19.38384896062211,31.44403932028717,35.21266380144994,34.41998170971177,25.37739361632737,8.140197938482736,-5.515758977613593,-6.038861921433798,1.515432698054497,7.982893394910117
72,38.06580880433714,20.230260871190108,24.50750487354421,35.960876980534884,27.464318598228004,1.8947072878742692,-12.40298173653212,-1.8437131118087138,18.70115861918421,31.67300077039813,35.69898214902834,34.54706499363171,25.78844108954004,9.911629468138852,-2.469512926854898,-3.158656760726239,2.5767062658217035,6.2482185918153705
73,40.04512979111808,21.86130202208483,25.58254484275733,36.38819389171749,27.661449982055185,2.732843260215325,-10.158289922038696,1.7561205735854628,22.49853643738713,34.02622475241589,35.818095777153935,33.408319529809944,25.53259812002901,12.087604798959129,1.8535526344838729,1.5615610307460481,5.798191955104842,6.886732246416065
74,44.24807732388836,22.624432699048587,24.993215783758377,36.40032496723598,28.516970967798066,3.7526711155186265,-8.98670975907963,3.683166636329472,24.986894718443168,35.76044310987274,35.956725386532746,32.89419062898724,26.075033409353807,14.073822817777518,4.095245565097789,3.244734163937877,7.85179121317328,10.800743467566763
75,46.94763289432896,21.18192715072307,22.70037758016568,36.08505634994018,29.946804984718266,4.9780721889227895,-8.893671542922196,3.229865120984855,24.535515559246576,35.078035716688944,34.994436022136455,32.47089549362837,26.888600978976722,15.459994942140506,4.5360367787120275,2.1364042674887203,6.168596318254795,9.739012524387828
76,49.65674799148221,20.89452409733287,21.424381759388535,35.64356066244147,30.45031484506308,5.480183988150121,-8.867971508630811,3.113525456410484,24.500751564808024,34.703015279193224,33.88727120893603,31.07357463874809,26.12940470156629,15.667594036194002,5.094058755354654,2.2738361792149924,5.694718202223755,8.786951214337654
77,52.266173097627416,20.162908342860558,20.28017437719827,36.32800268644798,32.189629805700605,6.178899962626374,-9.673134737704043,2.2025581243914494,24.484791049792456,34.9624668600171,33.51447481481128,30.443038588407475,26.313804175595912,16.69871833405608,5.740865462896492,1.660981563620786,4.35885010730005,7.670603760870914
78,58.068588520398016,21.495984624783073,19.209798272703058,35.16068682997349,32.05761865334844,7.072490421220759,-8.023315125120114,4.446883829536382,26.816676331359172,36.36765366535836,33.37176844305186,29.471723889500545,26.037674900879058,17.808432129416172,7.429369392848885,2.755175368201062,4.553456179938238,7.229266289232743
79,63.92121702465761,23.196231767123454,18.41370286775552,34.00244838677727,32.307730391108365,9.52350152637407,-3.8597056571894286,8.878797989222702,30.031248004260725,37.67592632857042,33.05793968383534,28.475693225672973,25.627716824834533,19.204506194114003,11.008989017342572,7.1800262151395,6.975002970325149,5.104890199632946
80,66.47467943147386,24.048853308245725,19.264437697547805,36.049376730706456,35.16589848429109,12.274825257116435,-1.4632316832581316,11.053543374593255,31.745005286426544,38.62669250272392,33.669679286779385,29.683899995932446,27.868480126729214,22.049154124031993,13.7227618655251,9.13834931143939,7.520569921866184,3.594265114789252
81,68.57431648999125,24.126109631446898,19.5926359832158,38.083296811495245,37.944917142446826,14.213611103609757,-0.4761897903746209,11.926754520420872,32.61707971340408,38.963628293261216,33.72796813477962,30.65574803701493,30.31014214155611,24.946277257118986,15.56235923359236,9.487414917299603,7.159141943546431,3.339368829479033
82,70.80485140436512,21.835005500942056,17.06276573026375,38.76797338840115,40.709293378619456,15.712478384541592,-1.093985500950704,11.271530778760344,33.102617349949334,38.979935850700684,31.87877974687045,28.79240511046437,31.330142567484934,28.14157819157619,16.76655289351248,6.718250140896979,3.981545515531299,4.677456572575623
83,75.65743077104892,21.34314271724755,14.892453252996319,38.26380698958126,41.910137308314,16.62507974200688,-1.2293795725656862,11.308455284668927,34.13471010496208,39.817871011605405,31.054020960490966,27.046258505433062,30.928851156854208,29.781274907290612,18.59433831686954,6.96029214659591,3.2593925247466524,4.613267179018769
84,78.92441796218485,21.778500847608775,14.15044689534241,38.12486899207982,42.8786326342064,18.013952031262995,-0.14951129425017728,11.985151129945436,34.57208122790809,39.98670714434555,31.04881797365261,27.462965009543517,32.25697802644202,31.452087153037745,19.385170278462834,6.742358470964406,3.7910002351447285,7.905372974988973
85,79.6388145567321,21.23605124605393,13.588103084222936,38.744412843889165,44.68063162353787,19.99118083486929,1.0487602873177633,12.120880680262797,33.865603441895445,38.93406742260955,30.464606261156042,28.20314074272982,34.362716770021045,33.70376916390939,20.291046795027174,6.234209432811689,3.614182426296542,9.939401740106309
86,81.23243921603697,20.201181323398924,11.94536459671284,38.15710437501314,45.090933965878996,20.508543011989236,1.2311695534313223,11.925625918046407,33.07900175078272,37.44040697755006,28.824753508129668,27.297230899504523,34.4674148086818,34.345145821496004,20.907729962123618,6.490534266435828,3.0869758195557124,8.08903895303952
87,82.83958964540315,19.14723042071037,9.473097041529094,35.85635868369087,44.00728546928703,20.694052271675517,1.8498439949046837,11.8459291834562,31.683109399519807,35.103556259576365,26.616908826767325,26.12067453097942,34.415912922997876,34.822272401803154,21.229619868460652,6.290846792016879,2.246910902912871,6.513322963243879
88,84.19367532953788,17.049409890875797,6.468823677628712,34.38467616200545,44.25832277152037,21.363055900377447,2.123891281045173,11.733153882117284,30.82904530521617,32.69940551810594,23.031425939589692,23.549666174018167,34.67542941778725,36.78544152754687,21.787724846265927,4.2624572164251315,0.2136189539403881,7.815235056124769
89,83.38387697386449,16.812234490056067,5.727201756084047,32.451423490286324,41.716101996597885,19.410870935078435,1.3045743157515546,11.444627366881953,29.96775203847158,30.738130751086334,20.587386616915243,21.85771571883679,34.266331348360076,36.702699326383936,20.527547431240208,1.7246420045978423,-1.6582153572454652,8.792247863333145
90,82.26419013077067,16.64562491307605,4.636295152551469,29.48785196502064,38.35431642195352,17.849198446175002,1.9282281160356762,12.533455948401825,29.597197144988943,28.524063781914624,17.771685457484296,20.062516993550158,34.011258447484934,36.83401736559419,19.309086591767606,-1.1437827478834712,-4.323760971295525,8.522661979196709
91,80.97849565149399,15.005407004948662,2.5999000800196597,27.533275302176726,37.0267916626895,17.107424931252137,1.3833549018433722,12.056213319838198,29.080183393556744,27.36686110556548,15.574569006326508,17.75438796645571,33.03302686332271,36.84491745168902,18.145368791899084,-4.130231993689893,-6.027117371398333,12.100855466924193
92,77.68106572251641,14.132571946179496,1.763288502346895,25.371030776075123,34.68484549842815,16.092628745289915,1.3103742203256141,11.395461477994587,27.284772718888373,25.257287134822874,14.023455893380914,16.86253298458711,32.40788054896779,35.94313621695765,16.48335597033728,-6.313381902899877,-7.2884521218175164,13.433970481474487
93,75.44969881184132,13.853535481496994,0.7676520373499628,21.943032712801067,30.319438209154338,13.493409016434414,0.9933174321755841,11.35174980512273,25.762563052582014,22.70979170014646,11.908129201987768,15.436168586674379,30.642978449485465,33.32334906669175,13.888685491158574,-7.727863767877686,-7.317284553347781,14.443347271881887
94,74.99734823719893,13.620653694423352,-0.7345683771421129,18.25043308258797,25.412589345706692,9.490074950579247,-0.67858456985813,11.66344050967744,26.333850618326938,21.836751909414094,9.244323427902579,12.147916442499762,28.068084150337445,31.47363035182298,11.719331514088621,-10.37217447792435,-8.629259511319633,16.652833129163113
95,73.47919151468108,13.753137776090702,-0.9172352355928853,16.45167961875905,22.979721105244707,8.264015882873164,-0.32725204463132496,12.30857717770397,26.137962818566947,20.969142307366265,8.458732872508621,11.639459367207166,27.496229486758356,30.74194938894457,11.17139758263476,-10.524311626776994,-8.659767434716871,16.368788050389554
96,72.42087527428366,12.924389088376904,-2.520968721588539,14.072356971635847,21.307592235526485,8.241068305537226,0.3106615003087314,12.086615769743409,24.9885765416474,19.967366137563463,8.05995056597468,11.264417952301292,26.746604759939967,30.07478306334167,11.129760560419266,-10.118643013201762,-8.449970449600762,15.958282405180102
97,72.65351743497338,12.57137351834572,-4.022274451071198,12.111465020883292,20.659708861251808,9.395160777251471,1.642001134204504,12.011163075474633,23.797349905330105,18.81980798129861,7.283475319378091,10.645147819607184,26.574792312884117,30.646137482286385,11.789924535705344,-10.110037851954361,-8.394103943403229,17.530147539358595
98,70.8677013713803,12.550329296563264,-2.6588315229001913,14.685487237643866,23.876033030567687,11.555210788864024,1.0294259369072885,9.05333488232552,21.13012012699099,18.66061829353327,9.432819678494642,13.474882163568777,29.036246776523033,32.515045298942056,12.840490625481028,-9.801155907163405,-7.57636219288482,20.499754987261763
99,69.64828660601174,12.925244019607273,-1.1480069134081454,16.79299532955847,25.80599506699928,12.325201002623919,0.33375240164051073,7.977749164710423,21.204388911566028,20.08699473226292,10.961984394720528,14.20551538611134,29.48872562323385,33.479120444384705,14.053645167905897,-8.933939155712213,-6.542736270369713,22.87122612212634
100,68.4855478824164,13.768452396666474,-0.008495401249707194,17.026994897181822,25.474547385370226,12.22029230289199,0.5386560410483758,8.185082354636974,21.44051128006316,20.524854946217726,11.469698786255755,14.624985146385141,29.998183355175293,34.159591344809435,14.506248622190803,-8.816578296221312,-5.680357210728702,25.97023773219475
101,68.56172708241986,15.176132103952048,0.8971421021289683,16.4086959717247,24.393608124830504,12.09056179246556,1.2034952972868147,8.520215624764253,21.19186888096713,20.553457603744494,12.36469101780105,15.947816872937214,31.020280881635024,34.715211937185224,14.909273523358252,-8.202184736334292,-4.498221019163505,28.08639954425264
102,66.56624415772097,15.997759187707363,2.2750714158175422,17.10764830511201,25.525701936255853,14.601184767027394,3.640615068412741,8.661942517665292,19.11487059566992,18.674476095987753,12.587516705010348,17.913028315175858,33.268297156947824,36.496585687940424,16.326496015528917,-7.131224968710413,-4.169161247674347,27.338269755886344
103,68.55862156287156,16.36067587775476,1.7454223190787326,16.87044783614717,26.331406627343746,15.829070043141122,3.8568187185582348,7.457972844293636,17.813358510704415,18.711469369377888,13.687058884427056,18.579967082727286,32.87710590374534,36.105732661848606,17.24019255081357,-5.092141620722011,-2.654417861755265,26.76689622223943
104,67.49093835659033,16.39067704737202,2.46204481194741,17.666492704362106,26.643702923042323,15.361944274020875,2.7882505074692014,6.456284596493924,17.631793785861376,19.512954652565664,14.751472586349605,18.89547982374596,32.19129792826469,35.30736411339117,17.497806447172906,-3.5999137476430403,-0.976976218079939,27.488542538874963
105,66.16383156558106,15.92437031850843,3.1440759029354597,19.377529901870084,28.200652182025916,15.358628302490397,1.1187991479123127,4.4561194581156744,16.501903894641323,19.145948724526452,14.523060604450222,18.978835745630207,33.091124959784054,36.27795862216847,16.81356034371246,-6.041838407892196,-2.2792562639281075,30.689654973480064
106,66.21369387387837,15.59809782266862,2.4057918267053804,18.46543984638639,27.410643287634027,14.543539942583662,-0.18741969682592513,2.63792929109036,14.86233912566382,18.331838585991573,14.3764015493111,18.78998762003481,32.382907737114145,35.0645567353912,15.362032593018741,-7.224598692367736,-2.3140873116057574,32.641111780358074
107,65.03289750431689,14.844548644476205,1.781481831998482,17.942111059037572,27.28848425565773,14.7952618020675,-0.24567240442703972,1.6329397428996695,13.224275669179073,17.132358803150815,14.25266803330986,19.201860420589558,32.22798622532074,33.87085149772348,13.67428992539351,-8.50954477282757,-2.6703270908677355,33.34515221740285
108,62.589830559155196,12.712319098460117,-0.26629145348547006,16.069933385987472,25.805964376940434,13.599599355968705,-1.414278149713291,0.4206349338315332,11.755056309850284,14.709950430410643,10.554917941927387,15.356294980071151,29.884458291761412,32.880273446326264,11.896945278552925,-12.24169427467763,-6.418669164194675,32.45568121299257
109,58.30771919978492,9.747137701820296,-3.2706663237227955,11.923944623695212,20.76259710031999,8.96063851103703,-4.389926142384959,-0.7703763389669054,10.828944072046621,11.708232548815678,4.422142304844278,7.732217392080109,23.71158664964887,29.34092654728336,9.381207571461452,-15.8602886469519,-11.420067693394392,26.971094449477462
110,55.98420029885809,7.972243216570196,-5.089615494742282,9.559025048154503,18.123844186886057,7.096216314532093,-4.551787314905109,0.42986936757110467,11.60695257230936,10.196443316583212,0.4511788174846509,3.1278787273173427,20.632505706636014,28.380300132639583,9.386144350137073,-16.3732702042912,-13.089024359966947,24.17873059404893
111,54.35441393357087,7.198536845644496,-5.6509290392163685,8.489004796042817,16.470720993234032,5.581752036612486,-5.227223542715761,0.3623586274937274,11.259434333137941,9.205520995903491,-0.6228987845595746,2.484298563002084,20.054981637296518,27.20660854605008,7.702863207158834,-17.78426524566931,-13.62019461563909,24.66930992389738
112,52.781355004722066,6.815655041251803,-6.395936958139883,6.26356865841049,13.388988737173872,2.9527396940964152,-7.237792700709569,-1.997937331971883,8.22961068144358,6.684351165619047,-1.5041622746221106,2.472456855034433,18.87922150590078,24.07534084876058,4.056865676303096,-20.094593222412286,-14.28608335110227,24.97396131957948
113,48.49031621304506,6.2802426032462915,-6.648654320003511,3.866903772822728,10.22424256089941,1.749582362437252,-6.402693907584363,-1.8218243253403186,5.915253322082515,3.2235016967144663,-3.5279036507925867,2.418312674177477,18.951355537642314,22.655861222867056,1.5355098500564568,-22.322558960821656,-15.534346343441783,24.673570150840355
114,44.08979871225642,4.522223804117464,-7.65028420099984,2.1989436804933287,8.203839607832455,0.4989611847965437,-6.658435549352334,-2.1903367008730963,4.187777999594129,0.20710222567391012,-6.278844459354675,1.5056463123969137,19.61786668467546,22.572269844739438,-1.5323325445103417,-27.76074469165582,-19.618229846846994,25.6638736329357
115,38.112949109074286,3.7550767317730926,-7.503105941490473,0.0717356628741502,4.972645713129586,-0.913527910048842,-5.983115646680638,-2.1581856643376005,1.4962155068062812,-4.049377890741787,-9.194523940700613,1.2725458940831378,20.57857962461743,22.072852071179916,-4.861220030021708,-32.96967842344964,-24.26548706407063,23.680238976128404
116,33.61486162757133,4.28176001396971,-6.594754043090854,-2.3069444253024898,0.7092937759906653,-3.2014827227122042,-5.447416134030018,-1.8330314076329774,-0.7153419132740734,-7.10078677712981,-10.040609374567017,2.3734328362039196,20.279368810722875,18.639331770611804,-9.358075943906904,-36.07855862930122,-26.796376981445473,19.3225349239152
117,29.364642371392573,5.006335587778366,-5.383317378666097,-4.295293168408536,-3.4526752994445356,-5.9724348636421425,-5.545620963208703,-1.285339421409653,-1.4130350453524563,-8.314933758697167,-10.311932039578192,2.3121972670148696,18.31775848384461,14.69442813234463,-12.728804596100261,-37.19041568998201,-27.410699480981716,16.358895554373266
118,26.37154950805281,4.097875040878494,-6.014776529172745,-6.0635480481843445,-5.875426488098252,-7.516588483689621,-5.6297272961219536,-0.9752497998854612,-2.1152750774185107,-10.196203490640334,-12.293800261383119,1.1868469633596979,17.865583965852,13.956651041133785,-14.37123985981532,-39.38077989723081,-29.11626737297159,16.030032823488092
119,24.47816920200507,2.093334218002823,-7.498825638712248,-6.384913231594451,-5.181533943857918,-6.6965506809058954,-5.564251484587749,-1.985397781054436,-3.996182912463321,-12.405808109441681,-14.013258634655022,0.7404290632305521,18.69586804765473,14.926235550091993,-14.631498834314595,-40.903326501453186,-30.210058057443085,17.196511116385828
120,25.641464420728344,0.3226055768733687,-10.312719252549966,-8.210405109078089,-5.6058351136127795,-6.67120405210642,-5.90442137501864,-2.779440411976774,-5.291470982540541,-14.450580395013956,-16.324160867061423,-0.30836282253304126,19.75162199254076,16.45446748651595,-15.417052932704983,-44.23464714899145,-32.389846790920544,20.310390102015226
121,26.54340641851916,-0.9982589857232343,-12.881112558934632,-10.685714971675386,-7.2316749064081645,-7.626418334290332,-6.836106520387837,-4.158345212239639,-7.208156475942078,-16.699115759133935,-18.39588908151952,-1.5670009781267502,19.335448447703243,15.75565852585559,-17.762290543600926,-47.88375400922964,-34.74689437677491,21.917461727434016
122,25.733518123374427,-2.591152912964042,-14.792115121032145,-12.604331976835486,-9.305788531603842,-9.955662154449625,-9.037058215812023,-5.754559582564589,-8.302412515561803,-17.937425970772427,-20.243841807842735,-3.8608990718158545,17.02435008406242,13.520199664528802,-20.160072723337446,-50.4486289477005,-36.97934770341183,20.540016967908862
123,24.713530612859543,-3.278262799139421,-15.928915041668848,-15.02548242040298,-12.889578554893145,-13.335460638295343,-10.693116813327558,-5.565090532135362,-7.755011408459716,-18.628570808409492,-22.399486976647772,-6.516466852536355,14.70126461738872,11.504257195818754,-22.276124437662645,-52.73689740625404,-39.11773186024631,18.84777482377494
124,25.411198266966583,-3.9364383868182062,-17.748747542174478,-17.511537361099197,-15.312015732253213,-14.968773929021554,-11.086415347329103,-4.820782631933456,-6.712588639584528,-18.54858422136053,-24.024321874359135,-9.324468549420883,12.047560102707461,9.863074962307456,-23.111960182204044,-53.242777233459485,-39.10247327499274,19.95505764420762
125,27.801421393169374,-4.695173915329393,-19.192890035986355,-17.66398454720739,-14.717740144646307,-15.118949607826975,-11.810944953745308,-4.550943153242377,-5.118170409581687,-17.42775294313115,-24.865248901971448,-11.01961661582455,11.814859131683308,11.368122516890036,-21.97988317387365,-53.69152273025427,-39.200688261246256,23.031203163663832
126,29.205752300014534,-5.274687320579853,-20.439378445776637,-18.290531865825393,-14.630031164580043,-14.739713076220086,-10.876218068844768,-2.5359744338360213,-2.771173574997304,-16.6612466890821,-26.362653751479712,-12.764180615156144,12.378820412084028,13.935496207700847,-20.331277856074127,-54.3510141098149,-39.51100636537698,26.80194544782565
127,30.291949172432133,-4.8310796409525265,-20.850143932311703,-19.459706710314023,-15.901024130673836,-15.080795793471042,-9.59306054586046,-0.08938367512241154,-0.7514227941793301,-16.44310915482888,-27.54804618640861,-13.36921371948977,13.693473650070814,16.05257909853217,-19.80513581606408,-55.880107957457874,-40.36778775701647,29.841781102386115
128,32.5596566357651,-4.411464729125946,-21.0598475988586,-19.190267181458058,-15.03699151461335,-14.062965728101213,-8.655189446989617,0.7878877829431854,0.02625149807537498,-15.793762510273302,-26.83104352820004,-12.39134499779286,14.731874076966006,16.719481227123847,-19.560105434952206,-55.458012243598176,-38.89497370851017,32.96730834394614
129,34.32262913603317,-3.5213435265813744,-20.67693412497825,-18.69002473360954,-13.904327275328306,-12.288789666542968,-6.690345098648245,2.4440880865815466,1.0829115533372122,-15.426579830901696,-26.962296659241698,-12.41494867481271,15.530138764169182,18.48535213278953,-17.408389477884775,-53.486209103707175,-36.95081699527195,35.417318679077745
130,33.92272859232834,-3.7019038239031685,-20.353483250615962,-17.572363520165442,-12.269666953824576,-10.925177767629725,-5.982100729352817,3.06172248931341,2.2502916841889427,-14.17463908432376,-26.72492738388732,-13.187868314004229,15.278947445328926,20.05230906033428,-14.489802209657984,-50.61436410689017,-34.69429913889313,37.40413755851716
131,32.95087597968495,-3.3916488842993746,-19.21474698042766,-16.15003347441117,-10.94921745795284,-9.752812357128008,-4.8004732048381555,4.1799913385815195,2.851946384005639,-14.376313090544171,-27.18241077167874,-12.760466085568384,17.15747503712078,22.612242529110727,-12.578600859664466,-49.60124696366586,-33.167619323899665,41.1436937239806
132,32.16270952413272,-3.2052062106707537,-18.829414670414387,-16.09189039868619,-10.935308246107386,-9.179254477434522,-3.579034354446105,5.441740566958752,3.4251436814581484,-14.68864284322349,-27.86559300628109,-12.947653541246334,18.02779396633959,24.31310297658621,-10.848749094705926,-48.37576597682406,-32.152572372015335,42.59262387323579
133,33.22473396098465,-2.8350540884162094,-19.184450545686715,-16.94261332747991,-11.462886010299012,-8.312137400373775,-1.0787432002581536,8.337572396792638,4.946679511241147,-15.100307511116425,-29.0719970532383,-13.45674326016505,18.62951055905992,25.452721301518775,-9.698803431272218,-47.25586451319488,-30.96814767108792,43.83352552357156
134,32.5676896106829,-2.469297061295689,-17.802740069947085,-15.080812302617268,-10.215875343972936,-8.155971194753377,-1.2475234327138378,8.670747673667394,5.341184873354804,-15.638285893940607,-30.21074255448788,-13.425403095103295,20.810409207982985,28.352300495117543,-8.419875007165922,-47.75639091948467,-30.374923010999474,48.70454323984818
135,29.654286811842567,-2.6506558514910643,-17.054823168815815,-14.865073144575838,-10.45929490077103,-8.12474521987647,-0.9205359527728116,8.579834580600211,4.448404413459144,-16.837708513671075,-30.922497537030278,-13.340484897787315,21.471576106098684,29.341222286876754,-7.080055502961511,-45.86608379983198,-27.675551266171645,52.52165361636896
136,30.9334809293044,-3.799807823234731,-20.06179989549455,-18.340147165621566,-12.595513958238726,-8.0922128031444,0.3267652188895134,9.308736639451569,3.8483396231569738,-18.277849487833848,-32.50561947132553,-14.94764355453199,19.923925091198544,28.634843921536653,-6.042035086259048,-43.48280383976434,-25.95408802519973,51.596088907793614
137,32.679504106207744,-4.295321414111808,-21.450726000057696,-19.56704942160703,-13.6264240127378,-9.159013389816486,-0.5590753138714709,8.892050053962555,3.6831461962517,-18.696314383220532,-33.46264607387303,-16.482584717710026,17.94619805771561,26.798930824620744,-6.823019861157372,-43.029376569407894,-25.5386541679441,50.35776178023153
138,31.35081755651342,-3.6767669476472022,-20.358216609152716,-19.41996138055923,-14.449394379531807,-10.01603305240067,-0.9737850514187003,8.57696840213412,3.3687313448656564,-18.302743894712727,-32.00103482565175,-15.095072362278696,17.693316865228912,25.15892732594584,-7.727488312331086,-41.92062897000636,-23.80362898154447,50.51219748048392
139,28.22469437110216,-4.472741521327698,-20.212821574470485,-19.50083563412552,-14.767369847478236,-10.137089061130688,-1.1930845988500614,7.385651289844115,1.1386954813702066,-20.192654201237627,-32.029544698967236,-13.415405351607845,19.243326588577638,24.955924277772066,-9.542763111652118,-43.82052742147552,-24.23984741580822,52.388041607054525
140,25.521201254624433,-4.528105715802706,-20.199577119909748,-21.137808678050998,-16.927941164063597,-10.868223244044719,-0.5426970307980256,7.695760838417344,0.29768374488966376,-21.208374338232478,-32.33318033309439,-13.727433747943092,17.805234927602232,22.93707890106898,-10.253713783163747,-42.45309138086809,-22.307986920216017,52.959900773599756
141,23.69326469025021,-4.544190918965891,-19.80375941101366,-21.19960348015228,-16.88867207722749,-10.057059884168744,0.4002641951575744,7.502684146963608,-1.0920201141297103,-22.349704584971953,-32.02248391714889,-12.4319066152337,18.699084313646907,22.91871371165832,-10.350475154333818,-41.64318400143389,-20.44789581744947,55.5882555422153
142,21.501202579280275,-5.378321903000167,-20.053164652119772,-21.277468451899736,-16.625468614504676,-9.806701640925622,-0.5607801241388414,4.825518771151772,-4.023135226753564,-23.412032618254134,-31.036900556378626,-11.568193307237106,17.54554194378323,20.528043647532744,-11.450244494841744,-40.25183718258722,-17.984155613165417,57.13903285134088
143,17.6976904334446,-4.778044717189156,-18.014975811377425,-20.53795828913942,-17.42541761493703,-10.894053761014678,-1.4212561284990162,3.675463125858656,-5.490100598264469,-24.166068938825312,-30.42673599591126,-10.563781093022946,17.36150650249678,18.969193179707123,-12.970041589494008,-40.594032346137915,-17.57877962474599,57.30387509047756
144,16.275518832105146,-5.4104901007444015,-17.825886548146702,-19.76709404327127,-16.833447785007312,-11.283579803246091,-2.947549323995271,1.586163466914293,-7.329092740781478,-25.133714272130582,-30.258289958337592,-9.51831265511907,18.367017748102516,18.744459014432813,-14.88870755588141,-43.124145110768936,-18.43486262249298,60.073254474300754
145,16.96104796991802,-5.83511181798868,-18.57715371701782,-20.265695611923274,-17.19246177265706,-11.826178780731336,-3.6043447496651053,1.1591543915187197,-7.437609021435216,-25.230343793702723,-30.68133231670089,-10.293751402724268,17.53901176397734,18.28125694499238,-14.770054084143133,-42.74902555487779,-18.696595064997947,58.300021376504176
146,16.456431358385434,-4.847880276796458,-16.934566812385473,-19.00599043608289,-16.526385039213405,-10.944923737581178,-1.742584689682437,3.6750067993705744,-5.283337788404687,-23.902301246536716,-29.860783079341545,-9.767424757140116,17.66859671862095,18.531903527729412,-13.160372473289769,-39.53314940559619,-15.761153076263449,58.67071772783402
147,16.040319452823283,-3.30316892897353,-15.193459973796449,-18.52775269841463,-17.028377572152998,-11.287402086140911,-1.4414670377179186,4.411295936046787,-4.116702151822656,-22.10928883244017,-27.920169166459935,-8.837741571183384,17.09628235919269,17.541100782352235,-12.97235560931654,-38.02065156976032,-14.669360562215742,57.48309480884926
148,14.963501968761777,-2.8555223669252205,-14.640064419566231,-18.699005140554938,-17.35003976933159,-11.233662133386096,-1.6770702022838748,3.1379238257539797,-5.725160516154183,-22.51218284824063,-26.733970609366406,-7.351395891191751,17.52787562004357,16.945711310336925,-13.62975894696002,-38.225680390176784,-14.831711416430032,56.77755643894389
149,14.85254452774431,-1.8446813123206083,-13.327708406610634,-17.684925605746155,-16.523426845997502,-10.489069735221333,-1.3632496043231916,2.962353951755125,-5.544140761987617,-21.105333947301858,-24.53014289190956,-5.80288143117985,17.670639615804063,16.54276103052276,-13.23786679672817,-36.960902382240775,-14.137139925988922,55.39857285917286
150,11.922545836791347,0.250142872259248,-9.984657522680513,-15.794160588259722,-15.139456483157387,-8.04117403588022,1.0373413659704385,3.2038915031694772,-6.773803129048206,-20.64502890524679,-21.036894778767994,-1.712410990552867,19.457536272110104,16.566389193783838,-11.944276432357166,-33.275568542060896,-10.674121286167834,55.43582973248596
151,11.846951033226894,3.1358621167186347,-6.898535738896038,-14.397955910838458,-14.39386208156762,-6.321008839459224,3.126336513887974,3.8768104182435126,-7.379319981554921,-20.247979500222687,-18.324784479411935,1.8121670523922586,21.6077144895305,17.484737759702764,-10.205942517248094,-30.011936659904787,-8.048938749747693,54.786950725708735
152,12.537034474250142,5.130436019625885,-5.225227623956545,-14.234205861179744,-14.951941343101227,-6.137813241716946,4.054485309641397,4.337913286139291,-7.619425466643868,-19.789561307226503,-16.240470056277694,4.245910958683024,22.46292293423281,17.033171483914334,-9.704054242970242,-27.807327041046296,-6.883951040183129,51.425890962112135
153,10.61834695800396,6.643423994423965,-3.568974810757925,-14.780636158565493,-16.225515427795536,-5.525446900085197,6.118635101815387,4.927227827500623,-9.435304959604446,-21.274402473989433,-14.83375402217665,7.150183410934731,23.536616469144338,15.9951441844164,-9.736677824332823,-25.642302794449517,-6.619442119683312,44.475723847107034
154,14.224788144928214,8.105380670837434,-3.943814868093495,-16.195332198831117,-17.257213212825523,-5.2919069076059655,6.911123076419657,4.975832472963442,-9.998905612267462,-20.867634043990815,-12.890813285558677,8.745610527149044,22.697554285242166,13.634558580101993,-10.455687152334907,-23.853415902820743,-6.122171032356114,38.90686088208833
155,15.10876998269209,10.362836935345046,-1.7875503435793816,-15.467981426138932,-17.513704121144105,-5.125704204721363,7.778356485690534,5.473580501987712,-10.237183740908259,-20.47692621587547,-10.800226638830162,11.131746726684229,22.972929024659344,11.93459415556708,-11.255446438474888,-22.338029774973993,-5.1659184125984305,35.227439255178304
156,16.99509149855128,10.906759851637986,-1.7002066096929,-15.31316280022853,-17.587461986235216,-5.77052911921593,6.905296975877753,5.106737101512916,-9.734682247108035,-19.399788308038772,-9.838719032787667,11.315623946607237,22.204980504720098,10.813301167438091,-11.782188776519245,-22.03289811293255,-5.01128253468922,33.96987955981104
157,19.07139102412175,9.990587211323906,-3.463019244457506,-16.26069780817552,-18.167954273761293,-7.159852311399729,4.988709278716297,4.239143039587794,-8.886528207306762,-18.15835682866178,-9.96168231317632,9.67338518115927,20.345195341387186,9.63388373177062,-12.67997549662443,-23.287518917932626,-6.376938369848573,33.1247388279497
158,17.613392277179486,8.696865074115372,-4.37804601442979,-16.642206607524265,-18.15428005846794,-7.224134669135303,4.2134674540001305,2.447540962798956,-11.141514359966363,-19.663139835746986,-9.97396056444783,10.538784003303002,20.747916087618265,9.03093672954587,-13.608087389582769,-23.87878098731379,-7.098488977551309,31.305658887030734
159,18.293607354124358,9.08087442000859,-4.857815714783274,-18.170214265223382,-19.616533495517526,-7.0609088931059505,6.052616901540098,4.106282967342057,-11.283597867454768,-20.957698531152438,-10.442418811363833,11.555750013911892,22.018573977772245,9.584047032721042,-13.142855383986687,-22.90704412251357,-6.9501303120518525,28.557981523212888
160,19.3986059316023,8.31327486551153,-6.167313977870267,-18.88674431819565,-19.80463721522418,-7.359074898092833,5.55985449982531,3.943569567765243,-10.87789099148516,-20.466649740330286,-10.446578325317049,11.101586001625463,21.57916777694207,9.275019539934704,-13.739303364589679,-24.120597031239598,-8.580223614775512,26.842391536096308
161,18.421811540692165,6.294430009191659,-8.829626401193215,-21.440730219144918,-21.87881191608298,-9.35440638521185,3.1614237847461757,1.4283442696683106,-12.850683104031852,-21.976239936492085,-12.287691970579727,8.646852657974254,19.126996158882136,7.170563374942531,-16.04148395717622,-26.68874851403269,-9.7182476490795,29.270346647026436
162,15.912493168013532,4.073617127774438,-11.086149774554707,-23.72513643211743,-23.810538405446177,-10.454121849616909,3.093047877799449,1.8850838743579743,-13.136457040555493,-24.112251092989318,-15.829536699187118,5.723088356410978,18.2904239095645,7.305625695042156,-17.481445463418137,-30.015477341705004,-11.428996548462015,33.2635203958602
163,15.762953317778818,2.745453106725072,-12.271205116252197,-23.77383374848518,-23.292391064600384,-10.54767103090656,2.3600780052666654,1.644204640562896,-12.386090704104388,-23.479210814839128,-16.658621395623115,3.7043803419998986,16.662322347062723,6.928687318548758,-17.270093510607744,-29.872144347342072,-10.530927623514508,36.32185388505717
164,17.49652293006578,3.857296434256695,-11.720879388154794,-23.615270760940707,-23.413261561431412,-10.938625138479473,1.9006779594947085,1.6691954058568645,-11.464138898494962,-22.021248557341032,-15.57061491852847,3.9395627714634314,16.410144446503672,6.76643266360094,-17.143471038186785,-29.216546330768054,-8.44809123145847,40.898961053955794
165,16.852077839802117,3.4781940144583947,-12.091240565872187,-24.038112112932506,-23.84859008075812,-11.646640073102866,0.5474260406684396,-0.12926621459140805,-12.888947936882671,-22.500892832638662,-15.375126722009666,4.149516543736921,16.251976864987757,6.102434942607847,-18.434110945243336,-30.86455743680366,-9.418774317610323,41.72981847853645
166,14.459512688372552,2.05747143793177,-13.587572669809518,-25.86463440715199,-25.046012409052043,-11.734413490171718,0.3803583532423245,-1.954562597201299,-16.275115993254392,-25.630435332393215,-16.6664341580856,4.562004568745125,16.942156325050824,5.7346079512860735,-20.19137877771165,-33.226595578377456,-10.932914298342741,42.29585723487742
167,12.48539506387705,1.487786922043667,-13.47524133883078,-25.472220298108077,-24.461538909757575,-11.41362734080113,-0.2708856602091671,-3.563549329653553,-17.859058150176306,-26.238410159439113,-16.163488016275437,5.814276367607347,18.429231974938375,6.460502837061412,-21.381261776649367,-35.929761935461535,-12.299871944055802,45.380340470942016
168,14.933938987940863,1.3088856573108107,-14.08306502615059,-24.88169024559278,-23.464645720139224,-11.775401034034632,-2.1539681190755813,-5.284494817997667,-18.01714211160893,-25.156031563685424,-14.955009557961052,6.754551254318042,19.25448781822997,6.678733994637718,-22.73790659455524,-38.56918998795293,-13.959999963776019,47.024617768548175
169,14.649368625659882,1.382594047954173,-13.75325127645808,-24.431545975402877,-23.225642990375253,-12.342783104194076,-3.8470680063550993,-7.4388573337856805,-19.235899797891303,-24.60197333249078,-13.242931809849127,8.171934421252075,19.447760811870832,5.807548757949326,-23.96993647432992,-39.60623277629668,-14.547312508102594,46.984505922477595
170,13.539136731763517,1.6644176796459091,-13.201019149044473,-24.512398925440586,-23.825365986813,-12.981771517582413,-4.55611616903713,-8.501529495933468,-20.350658407184177,-24.958696439436245,-12.581195901142092,9.034821968885469,19.477102824155867,4.9306340111718105,-24.864853211444874,-39.73919806210308,-13.929719445066784,48.0033819065829
171,14.806861756744992,0.9314848259767252,-13.985485881909062,-23.85835677540418,-22.624726433095653,-13.455196444984793,-7.536860331834661,-12.426652936199947,-23.048624874708263,-25.79268336592076,-12.42513793987347,9.309616366503302,19.573206433304716,4.374261100545103,-26.806641658567898,-42.69799517956846,-15.72979326026259,49.63267929272224
172,17.880214461690265,1.0416515276174534,-14.561164241216416,-23.41231336260922,-22.02894130416257,-14.800293622367741,-11.180452403074732,-16.231259200727852,-24.710787056816365,-25.22636365439417,-11.355121890836985,9.535096172376681,18.887047116419726,2.954619346255268,-29.222931348598046,-45.85665094807857,-18.064791036370895,49.784740322084794
173,16.04402586427631,1.7730188132472124,-13.077009144729171,-22.850451726254374,-22.55890896128007,-15.836020441862615,-12.630805988807623,-18.214170447915606,-26.439957604178925,-25.31410170232461,-9.610096751694751,11.352653463696894,18.818041523691527,1.0685449664401616,-31.064512567124194,-46.441675819246704,-18.251833289722814,48.483632556879336
174,14.983169233302725,0.9889906569597955,-13.660340985333379,-23.4601067569191,-23.44678346325181,-17.224168496675905,-14.66833509016333,-20.70306469582229,-28.581574046883432,-26.171910707795146,-9.213023029061345,11.627388658041248,17.5443819235239,-1.5351067151133544,-33.369313556170155,-47.61409790204703,-19.607742561359082,44.98548539117465
175,12.290779243530974,-0.5841596038968068,-13.192781650510538,-21.03935488576482,-21.015947611333804,-16.918027435289357,-16.771506440457053,-23.678177534618083,-30.74209526578777,-26.905458072585272,-8.91377978812066,12.194989556816052,17.794622615087313,-1.6790552473763367,-33.61659402544844,-48.00952616235194,-21.007875209890667,41.52544951680891
176,11.406390749517588,-1.6728312927723998,-13.568520889111612,-20.263639272670797,-19.904975920869475,-16.66339678228812,-17.61480548483857,-24.806054575163255,-31.34117411065883,-26.974415367629955,-9.036159061405607,11.607769215226147,16.944163163760347,-2.1609996953333916,-33.28275308406188,-47.18918318752236,-20.799253122829377,40.07032504378555
177,14.566137164201027,-2.937459175321304,-15.825843744824658,-21.01759329672047,-19.95700594225181,-17.72099405946541,-19.169339391170585,-24.8772796334508,-29.678813573948894,-25.837856682514246,-10.421324673925708,8.417248412072311,14.38700648029276,-2.711230799262011,-32.58867434257672,-46.85956572512453,-21.887878442991664,37.11494905141478
178,14.301316367149662,-4.389410846521393,-16.56443268011255,-20.125599343079543,-19.065542784189297,-18.78566370130559,-21.688393252169007,-26.619825754321106,-29.805611314521116,-25.854311264974395,-11.728126919091933,6.597512368402027,13.638780306404241,-2.6558867066691367,-33.68555299073953,-49.79778725178179,-24.55644878659521,37.35490667906836
179,12.425381422314002,-7.3457538729516925,-19.063339998641343,-21.006641800137352,-19.21695239105283,-20.075504878459693,-24.553514044217206,-29.64812274472396,-31.83616292384265,-27.48304605480176,-14.041278681093045,3.9816922608734817,12.017641192650768,-3.3655930362635287,-35.165935881824545,-52.57374150502377,-26.2016169363115,39.920332124056834
180,14.555389840518624,-8.02578672330299,-20.897621264161973,-22.549982277226267,-20.372667392967553,-21.389880346651537,-26.026613942006314,-30.75214126031142,-32.402476880779595,-27.991486933071982,-15.016687236509492,2.489519595768999,10.340014494812657,-4.786473396400525,-35.89179991796544,-52.33250756729465,-25.080532719442083,41.643140058855955
181,19.518758619453525,-6.424690160030693,-21.497516130490954,-24.193404510089525,-22.187062404763484,-22.49481354925554,-25.781610181934525,-29.442525010067065,-31.079534798342685,-27.347791738422217,-14.842734892413402,2.53393853435698,10.00423597009795,-5.8187129195517056,-37.24221203841388,-53.40290643274192,-26.07188063706531,39.94719719059748
182,18.408389097641642,-5.11021966807062,-19.915294251826992,-23.908770151034236,-22.481544649187416,-21.853106006771966,-24.191568451016636,-28.321083260382615,-31.239099776800877,-27.985811431080702,-14.73732968148881,3.5088334397906213,10.979172927830438,-5.501479069013946,-37.45315906435964,-53.744652660523705,-26.455791433381716,39.421371265490194
183,14.742867812235943,-5.241712893711917,-17.654889063733936,-20.9348660588238,-20.21206879482415,-20.95450947269084,-24.608348748228735,-29.476355450273914,-32.14475116070352,-27.671407378229453,-13.183177811765802,5.0122769712841295,11.118184883668663,-6.302311123972618,-37.319292816235695,-51.803080650260625,-24.24499446411444,39.784984096188005
184,12.346579987248356,-6.204358905441026,-16.497712942767887,-18.05760449015389,-17.658936725880224,-20.440742306452602,-25.741273895847467,-30.604768812408818,-32.38619823308572,-27.357987368773706,-12.753188294311743,5.605741000301589,11.894137373562897,-5.681405342858452,-37.100865822262655,-51.79347593460122,-24.08229784800222,40.29468175395378
185,10.053108811355413,-11.225473495434095,-19.86640980413209,-16.9021117484218,-14.517151046424898,-19.881835006202092,-28.81095978161991,-34.56338755734941,-35.10495748640972,-29.586908090405707,-15.626771823361942,3.178967297910544,11.71817948521832,-4.2583044131428345,-36.90732394705922,-54.14096406175779,-26.828454789563903,40.05307532213917
186,11.746189782996465,-14.132281807300393,-23.76546434642766,-19.059102454366677,-15.76550039868695,-22.08707841942384,-31.447384356946685,-35.61350820113807,-34.5982678842378,-30.105368585995176,-18.81522364080267,-0.9842906053160931,9.42897146740462,-4.334310804495252,-36.99895258789099,-55.63247312262918,-28.259660064273742,40.908894294088725
187,10.319600179392479,-15.696576147623725,-25.690743477841163,-21.248878275451073,-17.777598936510707,-23.52896941469355,-32.22039602864566,-35.959358182408025,-35.21598857008901,-31.946002966069845,-22.114747694991728,-4.5069191555613815,7.442555006411411,-4.496201814323336,-36.908574070385534,-56.675423676815136,-29.88253786406006,40.126588586815274
188,9.733570060274303,-16.461177539138934,-26.483145717740236,-21.813936818930554,-18.234383145093478,-24.53136502374486,-34.30135014670829,-38.79949786685452,-37.887462521063384,-33.810834122289634,-23.1365931525746,-4.823590012199761,7.62099443696851,-4.534233967568783,-38.11401032002924,-58.91496287775963,-31.31318193481323,41.53730498165994
189,7.668568267049831,-18.72443221620194,-28.451429826509372,-22.790825486948425,-18.207066146156,-24.46895401096134,-35.24426586875621,-40.7651121008411,-40.01611933823046,-35.45403026692431,-24.2954644668377,-5.547146376079678,7.559278922991448,-4.030552742730493,-37.740734000756376,-58.99638526734353,-30.912049111254266,43.76558887896848
190,5.298844598989959,-21.184178995172694,-29.95585887214381,-22.764653228268113,-17.59227974849888,-24.589508693745753,-36.160217132819575,-41.539074120593305,-40.38628919289612,-36.295384599325516,-26.15208727046925,-7.498186849572258,6.890670276246798,-3.362736326603861,-36.99383259660971,-58.89633374008264,-30.52169811932131,45.89184683735993
191,5.161476689996141,-21.432683041736055,-30.099608017214813,-22.58473358438431,-17.104011693697277,-24.001536676242917,-35.73581549275897,-41.55636559704209,-41.03382557809292,-37.39288725780784,-27.060569918546793,-7.580394148396394,7.61778978097186,-2.545697169246183,-36.75184240189567,-59.027703168132746,-29.97020617431492,48.14822904100151
192,6.633280027680641,-21.42934115412858,-30.2290106979457,-21.730296690922334,-15.57936087088157,-22.91418846240857,-35.49089157175965,-41.505604696368025,-40.525724652744124,-36.580216535491886,-26.417291063979565,-7.071949733718974,8.392793289063304,-1.5128097910341156,-35.90948409001209,-58.331657619560595,-28.368445094498597,51.85276419275948
193,5.717823390899156,-21.49358010139101,-29.58094515220627,-20.594413401247486,-14.32740707335861,-22.024474750703394,-35.18548855225366,-41.40622778672025,-39.93477379121894,-35.273359923581566,-25.00035886509515,-6.334867333176665,8.42400021919308,-1.3592524476694536,-34.86312672395621,-56.55709647745256,-26.85758438569183,52.21410649682483
194,5.214060787917526,-19.83264785639622,-27.776170823303733,-20.42558014405144,-15.47564290123211,-22.978170699002046,-35.31053028832449,-41.19275228225663,-39.44518638426401,-33.65560947176747,-22.172356987790963,-4.134542962844404,8.097001330396353,-3.4046923188778617,-35.66978480658899,-54.89606476614288,-25.331412535141563,50.11357545455717
195,5.377830025714654,-19.659773040951226,-27.390768633234718,-20.079792245656186,-15.513371709463852,-23.249796494444144,-35.49240916240929,-41.38573578799478,-39.76833686355469,-33.595274047280256,-21.363910192233742,-3.58752854919195,7.030129867525101,-5.214674639456299,-35.382626205462515,-51.83202031472877,-23.49803551468313,45.70733059455033
196,4.299872768804762,-20.420304011620605,-27.722509396495017,-20.153121570797012,-15.464063502332875,-22.83089020465734,-34.52935068900933,-40.376394959801836,-39.42276572509111,-33.88103666355062,-21.70462053676629,-3.9553661514011087,6.171850642662094,-6.1619861106879625,-35.10297603442728,-50.377168464321834,-23.75095556418453,40.35792866418993
197,1.6815696578655417,-21.3910138089302,-27.633519350685606,-20.251114022484177,-16.665121583768997,-24.447930235742515,-34.85053216103482,-38.865641699009615,-37.60432419442801,-33.60743853303214,-23.21806623595331,-6.148684608774964,4.299986888102414,-7.280599381833728,-35.27776630216307,-49.9842807624685,-24.22248914047676,37.44808495975036
198,0.16443797392695653,-23.902150836423708,-29.792021328342276,-21.368390743166092,-17.42471510874719,-25.508133363874954,-35.8255303019755,-39.2084562786571,-37.68797792370635,-34.286761948534185,-24.84538396062596,-8.527884926656544,1.5717705633329373,-9.548290753979488,-36.029646914444626,-49.29728180530951,-24.188854142985136,34.378282371272725
199,0.22851093277742418,-26.722841033631788,-32.997564820198676,-23.296292855561315,-18.592625805724154,-26.680319070869103,-36.640949584876225,-39.458696611422475,-38.38134465772824,-36.2670737958728,-27.38357570527704,-10.440620780458374,0.21273477267213844,-11.102531173369869,-37.67655646207467,-50.59713161903407,-26.00104314641718,30.405829476040314
200,-1.0279362195257291,-28.01827298088329,-33.63138259957803,-23.40935824065172,-18.94442682573988,-27.123837222024793,-36.25540060815315,-38.364348309822994,-37.9775488244121,-37.18817331486435,-28.569375834199406,-10.922573460456771,-0.04864487771199413,-11.694037266427408,-37.91974350470991,-50.356388834559944,-27.813728481890536,23.162330061546445
201,-2.1081964242824935,-28.37544341619012,-33.017851954637884,-22.387264760508543,-18.56268769547289,-27.393250160615693,-35.979490720965195,-36.894882990192436,-36.26737744550119,-36.53685445842476,-29.020477721161527,-11.53800857296465,-0.17769302078845206,-11.25796504012501,-37.01633125954642,-49.61377655308098,-28.925488997364262,18.386404276109673
202,-1.954397542242612,-28.302396735497524,-32.599537452413735,-21.549113589634942,-17.847208196266443,-27.274217908103555,-36.11800699262957,-36.385430061169195,-34.69887202726555,-34.64229320508601,-28.083453661787804,-12.104220189721563,-1.421154378281276,-11.700261788887563,-35.932518963720185,-47.82530862410121,-28.306580698359696,16.26302540278738
203,0.5590988273339943,-28.14566958040717,-33.39319285298909,-22.458432933596875,-19.152402579124367,-28.999252860585962,-37.13326557389741,-35.50109094513361,-32.21499140374767,-32.28303691445067,-27.529191576400247,-13.755239069456971,-4.1815961670403325,-13.630122775534518,-35.655182348049124,-46.1256935631999,-28.27653860245124,11.525169550922273
204,2.1407388335805537,-28.72173177948324,-34.201942299077864,-22.20701025757843,-18.392808720055317,-28.707188607700107,-37.09914132489995,-34.80419165277351,-30.757526859998944,-31.090724936112323,-27.59750393218712,-15.046189736794304,-5.705941537727445,-14.204229289034329,-34.78712090557742,-44.72881462628055,-28.565084252738224,7.455724277630781
205,2.9114328841788892,-27.28086942134688,-32.42933923661928,-20.62843932006841,-17.282592920962234,-27.892881768336434,-36.15235958635478,-33.35725619779132,-28.764505678438237,-29.01212202336943,-26.28862660986423,-15.087181167950652,-6.5851998265569875,-14.402561891083968,-33.166319645444574,-42.05242636358542,-27.404016649863628,4.7199278191224625
206,0.33346934086290053,-26.508399005797692,-31.06833670381683,-21.046497935490876,-19.055839471972106,-29.21243349103473,-36.51897616838253,-33.64814600973698,-29.19322499600903,-28.70686250357052,-25.281847195316438,-15.200330119446594,-9.042769964640767,-17.353584957879207,-33.41323605969844,-39.70687915269981,-27.417055500370154,-2.9972054835712947
207,1.5703897881336972,-25.89420825282785,-30.846612281280716,-21.121109763627484,-19.303326024560075,-29.44264292736211,-36.687879533630834,-33.792862071707646,-29.05714655241656,-27.91441555541402,-24.237553044096465,-15.24975833814453,-10.873981832551738,-19.439814002822338,-33.310575582505855,-37.57035300815203,-27.311201625950233,-9.415566132242521
208,3.0503622748839767,-25.25229506481195,-30.533887109752897,-20.453408021061332,-17.881899163255298,-27.513569628568042,-34.85605176847372,-32.317825987605836,-27.713410309373035,-26.649357098475036,-23.545122175155065,-15.476738709617885,-11.345552806599823,-18.793605285372827,-30.897360426295005,-34.372315112101724,-25.383146896167368,-10.396234328253747
209,4.107268247062189,-24.84701397315133,-30.29417498643164,-19.69677577275068,-16.37482386586896,-25.869168485528768,-33.847354148143744,-31.805667221949484,-26.85947755148727,-25.31346888174876,-22.713891885486916,-15.823977582779124,-11.966977984669704,-18.101046379526192,-28.544090175603372,-31.724420266500214,-24.283423939834808,-11.969022415533003
210,2.101010064542008,-23.920944161344046,-29.42479035645078,-20.850366419040117,-18.256722276826526,-26.400778586479685,-33.2076614620959,-31.647244442542668,-27.576315569987646,-25.83528848979235,-22.734723443985644,-16.50105552512921,-13.882241202346124,-19.80432316697701,-28.22677514862053,-29.998136836872188,-24.400794767024237,-16.98942442887138
211,-1.0831813749753112,-24.17036035143522,-28.812220601735515,-20.839733878856823,-18.30653750453894,-25.623225761007028,-32.34011887578821,-32.272803900736356,-29.77064352186458,-27.773018465533358,-22.881616880650885,-15.328868833090748,-12.894565852195083,-19.505735729191354,-27.88688968633294,-29.25428858964212,-24.200405342775042,-18.534351558239095
212,-1.0894399056946045,-24.42336656784203,-28.803748981406606,-19.846063133408546,-16.282129186852497,-23.77222969985777,-32.216311585874976,-34.05587198726507,-31.855937413007485,-28.38913690516378,-21.817894221072734,-13.790023698251918,-12.018761724424268,-19.485486144960493,-28.28453892691658,-29.520911616885744,-23.779968789959064,-16.96761063170818
213,1.461160488367329,-25.251756313983204,-30.76789563226382,-20.70546915363687,-15.761380532853545,-23.179991340093068,-32.38254593364706,-34.29928184522434,-31.281830677162635,-27.55525462768283,-22.216277931446783,-15.748242146401662,-14.025922490163945,-19.94955366332059,-27.265896103915484,-28.249543891535946,-23.11206030062306,-17.045319286304665
214,1.0944434820027942,-25.310394548294727,-30.938938920448923,-20.966256046723082,-15.573513497139688,-22.46473307070333,-31.785478859934685,-34.14268802810839,-31.02658287338853,-26.886757719775293,-21.98427425932315,-16.898631876461412,-15.84682268754026,-20.34144486096092,-25.013939865840026,-24.546643161844337,-20.66757098672569,-17.94581135506115
215,1.9753343119888789,-26.95273032242736,-33.2982030519251,-21.96645140871822,-14.604101376142173,-20.69711688311291,-30.820390632985443,-34.54954097616688,-32.339318103913456,-28.621554469341817,-24.002574373821055,-18.7734898551328,-16.6473608473862,-19.55252727421472,-23.29873447300224,-23.13044310560878,-20.226799135253575,-18.528244697636275
216,1.5635000822619716,-28.682949951370407,-34.490438472630906,-21.198707861549654,-12.850957858221054,-19.945999977031583,-31.259110430293624,-34.51044648217932,-31.215804219238386,-28.23956318648076,-25.888543382770422,-21.20062548666442,-16.421519203286927,-16.586032982436272,-21.124829298637543,-23.862319704711112,-20.943852562623984,-14.718265994440495
217,0.080329640754775,-27.86415043787704,-32.765606494710774,-19.62570400862021,-11.476572884020074,-18.544539896013077,-29.838547165535694,-32.985978740764146,-29.44100604622757,-26.64182790305795,-25.254353183367723,-21.393279483620166,-16.110024572154668,-14.89217034979374,-18.817324569613653,-22.045077262217767,-19.1647229879321,-11.576079816735437
218,1.6989813688566269,-28.070079523476675,-33.64162086127572,-19.750634712266915,-10.268827795817199,-16.616317211548647,-28.214384823693404,-32.07175684615702,-28.960688029186123,-26.420394540138258,-25.519467669408012,-22.083582954536286,-16.34025904560203,-13.610532110720383,-15.92085610113612,-18.53569957684455,-16.28665291719936,-10.043291453375021
219,2.2597810870786605,-28.237527498227244,-34.45699727124599,-20.943940259110384,-11.276406468389851,-16.719157432884444,-26.952066512999384,-29.727973806803693,-26.704555717239025,-25.686761077073406,-26.81681356868511,-24.306108004536643,-17.552367085725503,-12.750560076819012,-13.678502866033257,-16.57624428781477,-15.944309107171936,-11.890337789407395
220,1.8743912765545239,-29.335761993574234,-36.32263407689598,-23.09940697293054,-12.713217302738334,-16.63551293177498,-25.411030890164817,-27.66563638234708,-25.459637150504363,-26.301112341317445,-29.25869220129656,-27.21891504147134,-19.18253156408319,-12.442706888997638,-12.258082567270948,-15.085454440322174,-14.3756223602066,-9.568435173771435
221,1.0916912370248262,-30.564584610865598,-37.291971826594775,-22.89873498421254,-11.310303908174589,-14.960872408067804,-24.221189089457724,-26.865195613988345,-24.921219516765493,-26.6408045041185,-30.84585621481313,-28.81187091282102,-18.911253923105786,-10.379551357839746,-10.604467915248796,-14.903897474982774,-13.2611804981757,-4.0805213069895325
222,0.7580523809463835,-31.37393564984724,-38.55229207709861,-24.025737198297456,-11.621072796185256,-14.427244550679125,-23.236801134928896,-25.579098683335122,-23.583982566635648,-26.288237774917683,-32.385350599066186,-31.261632891393976,-19.882737109836505,-8.958696749825062,-8.54626376446957,-13.945902345548939,-12.343765105550599,-0.8127795907423462
223,-1.234133650954198,-31.55449962040173,-38.508049169892594,-24.848547615076832,-12.729902283179431,-14.575583125829784,-22.0372232755639,-23.731497536838077,-22.129764212100195,-26.036958795799787,-33.617527765549205,-33.396384979721255,-21.587218667887225,-9.120936271009926,-7.2337626138089695,-12.184845303767517,-11.066755567802076,-0.31499092807235246
224,-0.5707811426955696,-30.208748735539544,-38.11543087044839,-26.446460741108446,-15.033285903780989,-15.247148153269118,-20.355752258543866,-21.216205134098267,-20.49531388629954,-25.418164458533326,-33.30325737924402,-33.45733309467027,-22.576327199325245,-10.351061956623205,-6.808361540765482,-9.468114662289793,-8.141934208484706,0.1800119963424728
225,2.1153972395398375,-28.504618400479952,-37.497880197517254,-26.872315423318152,-15.81231134974386,-15.217287693726142,-18.78005619720476,-18.468923213742666,-17.747402179795543,-23.68942018149712,-32.87108976223022,-33.93020480087829,-23.131069501788737,-9.932482353790263,-4.72309290394236,-6.297215531536823,-5.831756154555944,-0.23437712422747087
226,0.6591935655349921,-27.42283833868579,-35.89877836531985,-26.445808690616147,-16.37794569392025,-15.447853550903469,-17.758364382053824,-16.337506212487977,-15.458734018365597,-22.473561333740484,-33.41218561984055,-35.55946567574112,-24.162600137896373,-9.279087765240702,-2.9635274697675817,-4.785858136087668,-5.143183540144305,-0.08006774265421321
227,-1.7640880299181554,-27.342547603917232,-34.93881080507418,-25.775037203681183,-15.620132972208218,-13.800642925733236,-15.52884952227211,-14.773982438250396,-15.27484250937994,-23.087060102005733,-33.70044767464404,-34.98412853847457,-23.009804750960253,-8.09733613477056,-2.018287350053048,-3.9137247956222856,-3.8669790898569354,2.1089220371146937
228,-2.5562847170379324,-25.588529957031874,-32.491150467885326,-23.909598378684777,-14.009280397328046,-11.882083493280089,-13.717429897138466,-13.681843293303245,-14.51759875171033,-21.69154488990543,-31.34963095492176,-32.21335424825888,-20.447224979010706,-6.116190246242451,-0.8399097419867503,-3.236431545189426,-2.4133426781857827,5.836534048971248
229,-2.764415284016479,-24.426993662885593,-30.56218425693744,-21.695489844769934,-11.617823341573603,-9.461161020162692,-11.719746470458503,-12.432828346038736,-13.67566249839029,-20.43573773402318,-29.147545001222934,-29.279307388080632,-17.463926113365147,-3.6482188970255636,1.0166119139076888,-1.5876993390426757,-0.23917110136820358,9.210690842670845
230,-1.8311357484771889,-23.5203543438326,-30.03839244727859,-21.43840161177163,-11.004851849605817,-8.222984507845409,-10.285212306800862,-11.24135480682161,-12.642655481154568,-19.339443731509633,-28.06201097659774,-28.267924849366413,-16.259249230272154,-2.084534100809864,2.591292677728649,-0.29288718909583167,1.3105541097693199,11.933027359322631
231,-1.1001237950453555,-22.50892508212433,-28.67524898682416,-19.84463035909011,-9.554955618683682,-7.245463599477794,-9.670665035801052,-10.445710854528148,-11.203876811862784,-17.388619567105717,-26.2195362936554,-27.012529063466904,-15.500165990373068,-1.3984077688638845,3.408875256357457,0.4045802856441467,1.3977279429291627,11.034793251173834
232,-0.9312752179726725,-21.156792579579907,-26.92649243581266,-18.748678586766204,-9.443679809323198,-7.464102600717123,-9.327290066834223,-9.268545313892318,-9.590633131708111,-15.90828789023498,-25.359671381656046,-27.134660550862456,-16.43398691285142,-2.062381226407487,4.209074211505741,2.2308456956368867,1.663958359106691,7.063148034917066
233,-0.4142356875696256,-20.674654289261582,-26.544188980083504,-18.468244411654908,-9.240676330659541,-7.342013108487336,-9.128211009751173,-8.600932132613295,-8.341128655420409,-14.762758064896106,-25.283287057913473,-28.14824287071245,-17.358814945901383,-1.7918475597459689,5.531825900453822,3.6221571160872457,2.4826441317211865,7.278112023229355
234,-0.5063544240157315,-20.388103249817288,-25.854566493902336,-17.31339600930515,-7.898207451797206,-6.573119631570798,-9.462864873293706,-9.505095242405913,-8.607656611986593,-13.882092162428371,-23.99641867472672,-27.437610531419857,-17.32878505199318,-1.866623476400434,5.741174190123083,4.201932718500006,3.7375164157778915,9.712152700434519
235,0.036803616385267586,-18.65924509568357,-24.076910176553504,-16.25161632522062,-7.3147720026558085,-6.039767605702906,-9.00035279146567,-9.17082723055004,-8.108777300251232,-13.009162924456616,-22.997595006238257,-26.596383044048025,-16.58076426594441,-1.2020226273822892,6.006348032208857,4.207605313337768,4.813771114949485,13.477190620117652
236,-0.13869542265822474,-16.987642610207743,-21.961956012551394,-14.823842533669254,-6.549669495413067,-5.534237899647835,-8.794167421748153,-9.358513563635949,-8.215537196285931,-12.362474354537467,-21.498666540704665,-24.705873982696346,-14.766861118288837,0.1889321638864647,6.59431641633443,3.873782861722168,4.098931951207603,13.141482928263708
237,1.328187587871258,-16.180756132304367,-21.97741510183321,-15.486736222579745,-7.158556450094238,-5.614696412845621,-8.767629596910835,-9.9579693344265,-9.279344657299573,-12.74610616023598,-20.43030899862736,-22.84974532054873,-13.534457704940465,0.2016831799985484,6.007328557297241,3.353073532457519,3.330795361871015,11.344453187569565
238,1.7132357603568231,-14.411967492522628,-20.407924245503867,-15.484527147917033,-8.386522840538856,-6.757845371446041,-9.310918980891529,-10.482818941104291,-10.02255646677785,-12.79439702223644,-18.970562680245077,-20.679897283105078,-12.420162390499089,-0.3666956732364647,4.87030346938936,2.7203646217027044,2.6588219597124523,9.373031310582151
239,0.6474344498438348,-14.632717935921393,-20.34904116891009,-16.002326410071124,-9.907686654473453,-8.682167818500165,-10.598452128462394,-10.952519230891829,-10.541370312552653,-13.933547326823408,-20.05211490702795,-20.709868368824043,-11.647968821646169,-0.25916041202597034,3.2374906077495726,-0.17937904901968266,0.014891288687751582,8.198080493607556
240,0.42217387504486487,-14.167427647173641,-20.125031627578263,-16.900832708048515,-11.700498772568704,-10.100975530955315,-10.604063127499575,-9.803754885518375,-9.400999054089365,-13.564260358056673,-20.25639334710885,-21.01124249153339,-12.0214257109174,-0.9349170445518231,2.315274128188923,-1.0797634368891047,-0.8362735148428774,7.199568182086362
241,2.7838796207029786,-13.595843099127006,-20.54910211723731,-17.41556311201985,-11.941227550936816,-10.394309259335861,-11.477678191531579,-11.271825960512315,-10.752056278907727,-13.939830511426173,-19.453069099686694,-19.676148433988264,-11.089500963179352,-0.9276261232891344,1.51777178267898,-2.1945709355573824,-1.8195429246311219,6.5334237207763195
242,3.5126948267971008,-13.212667015607876,-20.517542148608854,-17.748242595940635,-12.640515213562217,-11.213162461260556,-11.819930140146719,-10.677722225521778,-9.60075275086104,-13.327711396260831,-20.015157196410808,-20.703162507492525,-11.281982779159712,-0.008363159754977896,2.512916974774971,-1.930739719995464,-1.6341148119283533,7.852740256409622
243,1.8047557946604262,-11.59869561208969,-17.585335556386884,-15.670030790976021,-12.303015326244678,-12.240164193947065,-13.34329531755468,-11.771687006659334,-9.446629851539125,-11.653764396915285,-17.510099092189876,-18.641135041976824,-10.515739062165546,-0.39272437727782256,1.7441651250014065,-2.388644991063969,-1.3946812724829603,9.009955224799132
244,1.6074296197569364,-9.942337443042677,-15.239923079969879,-13.876549361615988,-11.777249322491452,-13.18152837341364,-15.284285853159439,-13.417168213287905,-9.44274176982638,-9.871982895648998,-15.126037819185228,-16.775208024382938,-9.392948453543106,-0.05879642874208069,0.8120971181570661,-4.545359541905328,-3.2506251386142724,9.308753676767624
245,-1.145611817600282,-7.432736227923204,-10.928684381448358,-10.778424813188654,-10.111526045579991,-11.948162403525005,-14.567131847087433,-13.913159796746964,-10.476009285596554,-9.381808511429726,-11.897811231627163,-11.884033960665132,-5.119763019464027,2.125675493899269,0.9954967302615056,-5.345732255042611,-3.888922602548668,9.659967292969363
246,-1.5444308732043133,-6.630374985235163,-8.927547777885295,-7.855544538673085,-7.273936976233868,-10.441842765623928,-14.661712824155648,-14.524979510802076,-10.326473231625396,-8.213452336998056,-10.147828016273019,-9.626942729039353,-2.2534148288442952,4.724082733995504,1.7545065474518116,-6.4739990585522005,-4.279952786157596,13.046747815103465
247,-0.012450103680786768,-6.51186163812479,-8.515398213650135,-6.063593496693731,-5.313960863296596,-10.218680795423737,-15.974957241316313,-15.107728130177586,-8.871670626893497,-6.1385504840836935,-9.497896797278289,-10.155171775093857,-2.022206559504916,6.1656019151537205,2.637666530737531,-6.979636087264727,-3.710297047318055,18.04423262593838
248,1.5818597202328708,-4.631615346451794,-7.224541960186238,-6.07909833425757,-6.523675616801645,-11.968215189706358,-17.591672560334548,-16.043514274698698,-8.777989999549035,-5.145716077118577,-8.248723121022188,-9.333515365141166,-1.9624778408862789,5.351357597574048,0.9572576399673587,-8.989058894619138,-4.751522979402259,19.23328342360046
249,1.6597158120016522,-2.677001119571492,-4.7790279909526605,-4.631084504294262,-6.527883044461821,-12.769209158241159,-18.13011824564599,-15.598623350962777,-7.335422614719468,-3.2871263652841,-6.636480464964047,-8.221196703347688,-1.2565728486743428,5.622883266538677,0.5566864820180583,-9.954311583173103,-5.467983376071734,19.68559814888435
250,-0.8912157125618351,-1.3618144811342285,-2.004289144646511,-2.6151791362443655,-5.753163584873107,-12.56531123482132,-17.83340580981305,-14.927040366398009,-6.3335611296899605,-2.2900183262482083,-5.882174196001492,-7.323106164697336,0.38155508756432766,7.629564416302178,1.6201429193478003,-10.174499025610956,-5.030344137820761,23.329867848782893
251,-2.797684067336554,-1.5151351150795238,-1.1527224369482043,-1.8883920650074644,-6.297521014810711,-14.553718007470934,-19.83735737334949,-15.08498986089372,-4.550342307019151,-0.6434398351207301,-6.224687643124755,-9.042477572239438,-0.7719611023849299,7.294859004443771,0.3519261346578712,-12.821672220392445,-5.99001643297725,27.92781802382056
252,-1.2817181590870552,-0.037983770803538965,0.2760720781543577,-0.6262578804395803,-5.577255217687082,-14.59578116073935,-20.003029119155823,-14.082169690090314,-1.8674153765716328,2.484304986503276,-4.498708441118267,-9.094763535566889,-1.2394351480742776,7.625577362222409,1.2781414311470005,-11.785817151142645,-4.061628015990497,32.14542370884729
253,-0.0740025181795988,2.1473955373712275,3.443813541961011,3.02350766175271,-2.3834304716248917,-12.503199175293101,-18.758406677493685,-12.732799972380517,0.4629803494539473,5.934410377349099,-0.6451357157231199,-5.8942016115059594,0.8307426759004856,9.224290511805512,3.5595862983341333,-8.631364460485019,-1.3701624575041276,32.82860641551136
254,0.43466564279324293,4.306121805765328,5.728236154864651,3.9069128177655794,-2.8422842496692637,-12.984165798224803,-18.314578480748626,-11.563661654087406,1.8508879529470808,7.5701763415805665,1.2540925218818864,-4.5634113201401805,0.6629502713007862,8.153349259745571,3.5038013380657103,-6.875947756653784,0.4124205930384382,32.23410061769579
255,0.5554026245930452,5.6979317929945585,6.818288979107482,3.4827408529028885,-4.354538901455902,-14.205657412257695,-18.406291629092365,-10.788549471817857,2.7370241688767756,8.107028707566377,1.4879632170586075,-4.39946939167095,0.7601888246953097,7.874546118397554,2.6805995780773264,-7.613957075389708,1.25662276724211,36.095323275050966
256,0.5323736549881244,7.288262259721143,8.642405677507151,4.505230816229583,-3.854156232603642,-13.451292897124127,-17.296124641166845,-9.815331856104097,3.402132474208715,8.912012598174883,2.867912722071047,-2.610993421926824,2.3248309975595722,8.669863965816825,2.6893544276850925,-7.712459535103836,2.2461791550409314,39.236120039231196
257,1.0989462367509981,8.498840069455268,9.49507783277882,4.327672291043306,-4.627874406390825,-13.997077751332485,-17.386177701636807,-9.749744907657416,3.4926645219338144,9.212517449516302,3.412892002288235,-2.1298284616085907,2.470425668212091,8.57722235926952,2.679051884533422,-7.398955477402162,2.996415061133528,40.51788809719534
258,0.26253754506990423,8.53893091685542,10.06625170796572,5.305125268778054,-3.282782642602104,-12.993562734204449,-17.910754490368387,-12.031559697004298,0.931233741635355,8.266543957169311,4.489218938402998,-0.33684592033912664,3.4822708271249656,8.412966491484333,1.8936102612716192,-8.184832839764546,2.452398564787613,40.241478576808646
259,0.25708012990917845,8.88458719767201,10.592465901609948,6.066656414758825,-2.0545698872468003,-11.56887687682962,-17.150401844884552,-12.40723164529248,0.05544268390356644,7.905222320960505,4.770712885318708,-0.18536475690990276,3.105832096721389,8.250463124885187,2.950841480140541,-6.090220165824495,4.0269366514,39.774044168498826
260,-0.9163980619188832,8.604251075382168,10.395782897520109,5.785946304900806,-1.7575746256846987,-10.668575494665589,-16.83434367985283,-13.604095099349172,-2.016587044068889,6.326889953434353,4.147414335621327,-0.42549320432901283,2.780048493081355,7.958106740662688,2.8631511004226518,-6.04205075415906,4.264005403066511,40.48876472873617
261,-2.073559916351553,8.99913285151762,10.639290978866795,5.017737504778609,-2.363247345697883,-9.968299143810585,-15.790715810152545,-14.122598055370746,-4.242771977378664,4.297399518600989,3.81304818303471,0.33710167645338646,3.1365428611840973,7.562793140323811,2.5609915639368555,-5.991680082784588,3.4191698373105774,37.24445937516212
262,-1.2384708609218438,7.429688892490269,8.638771372568323,4.443996185778562,-1.4330590493061461,-8.971082465494709,-16.086046642286576,-15.847357444686308,-6.5343044128242385,2.329935841072616,2.4867931219597184,-0.46879963857317947,2.6897091146435774,7.3994952519784905,2.4942161997173264,-6.493228283809003,1.6260506712826146,33.37095806567336
263,-5.12532448735964,4.919171687153338,6.948442069433561,3.7223410367052474,-0.604212492142331,-7.321102120198211,-15.874258253586303,-18.510312815251385,-10.848720854232267,-1.0956802985557579,1.1078413649529473,-0.61589008638941,2.622999326789135,7.090313015396984,1.989747460694873,-7.4424797153585205,-0.14057703765777646,30.634994553131346
264,-2.165693487536833,4.302510804815444,4.634932647585364,2.2365258027019417,-0.05065875048330171,-5.804487018040523,-15.332652579693272,-19.397811948990384,-11.887235932787702,-1.3027701730294232,1.211165180126459,-1.0004630892157091,2.0625434377686744,7.088038571734719,2.3668283628765043,-7.381715268115505,-0.3165267299365713,30.876932717131034
265,1.0005214679055234,4.971515986505642,4.123912553683395,2.598295302324762,2.357645028309333,-2.2287748306105057,-12.585586084946062,-18.470479537064136,-12.102926286558016,-1.546606698518616,1.5999897381635066,0.5979854824886607,5.247820412611364,10.839299149768374,4.4275287301873565,-7.8324814685951365,-0.8817667204502248,33.39941195894919
266,2.5784808390370553,4.100806194898827,2.571833968927051,2.7718934169877216,5.218741596862904,1.650387884012756,-10.585231965154575,-19.660313831616225,-15.137614536787321,-4.08711188117091,0.8661322530816747,1.6966246023017433,7.620174079591492,13.517876662575661,6.1984863093076745,-7.3514409751226815,-0.46243719900364505,35.39358911901503
267,3.622102247505098,3.264149708977149,1.3389644287283533,2.9869602993265825,7.450179645090681,4.658213878803891,-8.609909848216935,-19.452742616209452,-16.119505563177224,-5.350777763282059,-0.016225890497678218,1.8255709310181443,9.131836955813025,15.688761981317505,7.444680474603983,-7.613494236482947,-0.6723376411036708,37.31772752632933
268,3.988007523257768,2.7223537712668464,1.7117155019040848,5.733866600603023,11.766536031977369,8.08963473343198,-7.725619211042137,-20.5177473469948,-17.276626285055574,-5.4306437981280125,0.8954962656062716,3.310473116490184,11.077408606395776,17.86380845669725,9.172118977282587,-6.802590826769558,-0.3862921887894754,37.786049272137554
269,4.6917056474516565,1.3996598511524447,0.577375646398319,6.970634341449476,15.130931841537093,10.899753220244822,-7.899166720422571,-23.296280929512864,-20.025067508609816,-6.193160508332916,1.7031076019996119,4.202393422995452,11.57663041672568,18.63591861981282,10.629741561463456,-5.189700603991186,0.5110290397738743,37.432064914811974
270,8.140830215182575,1.4029289499785955,-0.8490395005249064,6.411471790947296,16.168624462101945,12.280977511481304,-7.804185282686543,-24.536415938894745,-21.11219890087305,-6.053692560890638,2.488438087212299,4.4203815852494,11.052199695357476,18.277845249564926,11.071304937826401,-4.426479733930874,0.45594224871592964,35.64297980068397
271,8.733129133042606,3.50484088241034,1.1692472159963045,7.116853149404508,16.021566303744123,12.369771783677445,-7.357447899894624,-24.31473704953237,-20.970970713687095,-5.024742624249224,4.628762552549101,6.3578505832758685,11.408067573684127,17.474588325221177,10.89205140346541,-3.1999225343639637,1.7106743750953597,35.070453914324396
272,9.21769550676621,5.351794674015725,3.519625036534059,8.7971033315634,16.2577655463273,11.258304584403142,-8.889167798735683,-25.08823606598427,-20.3590033710743,-3.3625902922375634,6.414335399543607,7.544403418495818,11.89610251108357,17.527581505737558,10.715673317916481,-3.494881984109927,1.4995716514021382,35.18261704726165
273,9.434239952255394,8.030893807989672,6.083210144087439,9.149681922500026,14.914884823907855,10.030909804283302,-9.251718267511004,-25.01064350248782,-19.875370823441834,-1.819241005054001,8.890359896327261,9.381765211311045,11.673671228867054,15.787621333768962,9.395564985988083,-3.3976167876118724,1.999742142824565,34.58904434497191
274,11.216485297745571,11.794314234459764,9.679294172741944,10.539957921936878,14.288148589672359,9.175047474772134,-9.206788554912489,-24.33741687468291,-18.78998950014103,0.4704694777133656,12.771579972612278,13.234533601510373,13.138471591505512,14.736124509640643,8.32413283474089,-2.5431619968175845,3.7411541316810486,35.01094426333421
275,13.317769544325278,14.714797982207692,12.205375282724457,11.589673856116143,14.170189430568506,9.128618830217844,-8.454591509443008,-23.04460646331497,-17.297237676570752,2.406019560158268,15.312057680824989,15.628339337757303,14.330156149581436,14.79117189876729,8.50102090347002,-1.4682657036607139,4.855122594162536,34.78116475123314
276,14.793697147061241,15.17466784531071,12.774360293943372,13.001940622515793,15.740191531086122,9.59724142320041,-9.367639039451387,-24.330733048071128,-17.774683008910756,3.0734169994815277,16.727021805901423,17.302351495761393,15.840784652399726,15.566299098718853,8.089593881445325,-2.6241106366077447,4.438914977635477,36.51070213327598
277,16.917958241472522,15.814746146285792,13.770771338086412,15.308071382166844,17.7073673872098,8.909412228895393,-12.675892699669646,-27.730488931205098,-18.9282621145859,4.38043968213909,19.367680377006387,20.349308961633135,18.47297776666022,16.218972945175643,5.363875519942264,-7.573721797497947,1.4294799555606503,39.40637091104062
278,17.65695731444814,16.97074734473998,15.383470427593478,17.074826249227524,19.03668463557917,9.279817872132718,-13.440663285282762,-29.243193196541615,-20.063642597811235,5.0078363851060095,22.057424895242768,23.484216824084033,19.755223806546624,15.007897669804601,3.235608224982263,-8.877508524708299,0.9340546247648035,38.684663143320755
279,20.926181423423124,18.54931181970297,15.779389859153609,16.829341316584923,18.703093641561303,9.231701299279537,-13.403421021301336,-29.618119585906236,-20.574847740455514,5.640709930310578,24.45536581890597,26.064485342144195,20.077994784605924,12.88301154161499,1.2392515456911877,-8.705208775859326,2.091396553598266,38.30668939457313
280,24.63883211568955,18.004277937647572,14.181589520760559,16.553914384771033,18.937210782179765,8.01059866640806,-16.079117723798333,-31.784736641954943,-20.856232296934635,6.6314994051641225,25.250656141440395,25.9204060632563,19.081020881254183,11.204927946507064,-1.035604989868823,-11.20108334319229,0.026281385251381437,37.06458545383475
281,24.993909277927475,18.193033480783427,14.843466111340964,17.641274122437284,19.313468785819595,6.750998581718402,-18.43866039800872,-33.716279033317335,-21.332629817312547,7.4106429681924375,26.360511287882055,26.49226533910557,18.663611217014623,9.829802398750266,-2.927907775953461,-13.081252785886717,-1.6192881829508603,35.54866357130966
282,24.575796546637903,18.504067047887915,15.96467439309212,19.30462939430266,20.638106147689626,6.753377600884468,-19.910427640096533,-35.650751768774306,-22.33192618422886,7.9656210511672985,27.917688852317493,27.960703645594258,19.246340206838408,9.30656369520868,-4.349462273594351,-14.89570921640759,-3.1409524920190055,34.84301578319045
283,24.348046259314835,19.144173578147946,16.568995472830153,19.09816922315292,19.6202565585783,5.233873490016485,-21.84031901081735,-37.753819036291986,-23.75702608436886,8.02969831243531,29.028060195401117,28.453818869424392,17.87413722729082,6.587372822373296,-6.75469919471619,-16.005999350635733,-3.4605953741216107,34.360830673277384
284,26.154832520051517,18.89942297471937,15.120904705264175,17.471612083265146,18.368940670113258,4.156254656135477,-23.239016366258348,-39.40372001893199,-24.82502508805686,8.189629533908093,29.789625791700832,28.195014954288716,15.610557681900577,3.1588025660098946,-9.453851226553738,-16.98798331281466,-3.5189723349607904,33.90192689057467
285,26.50095309537317,20.58808865348724,16.596097978725908,17.341219709166452,17.0660182666871,3.1552727083959606,-23.494106364917176,-39.778197887342714,-25.554832055728777,8.447051474238426,31.913464662815837,30.457009859077363,15.29307397667055,0.34545266986261114,-11.538277368405627,-16.32803972554791,-2.4402317358176973,31.641620289384605
286,27.562613132888202,20.20366502239168,15.929010249917132,17.145905608891745,17.05796943008165,2.932364452301077,-23.570969570396585,-39.08131944098545,-24.25391816907961,9.31950772504482,31.48078045063971,28.845639654716802,13.504759882814595,-0.5314105402578777,-11.16614206396976,-15.619132549435582,-3.316861271066499,27.43497303941937
287,30.19665518844211,18.90820288974546,13.747167868396424,16.393984137741786,17.12504970392022,1.989021555951521,-25.751542719948098,-40.87789574632451,-24.34360633158641,10.403522787989417,31.972527959351837,27.46344049734361,10.545032888541515,-3.4374000403354477,-12.427394027845935,-15.272499441315135,-3.3405450331292057,24.825627413307966
288,33.39906267280514,20.654578349358673,14.796603185158716,17.18108172574081,17.360806018256277,1.180683415883436,-27.450439727426584,-42.365900932245765,-24.256617403997332,12.416355000377557,34.552293858988314,28.476730183306874,9.184330067821145,-5.543689268467011,-12.759403695896498,-13.347993758412866,-1.6606495607137737,23.3054957190861
289,35.04719414280107,21.78124344192459,15.075751210319904,16.70937587211505,16.902085446664273,0.9612922702311838,-28.26513106811034,-44.15052272124653,-25.597265418881896,13.248292418265676,36.87646263831007,29.310709228648122,6.785175118865509,-9.115695751319123,-13.811961196257265,-11.256026898709807,-0.31471619914896587,19.443984822484754
290,37.54485972631735,23.374376032133153,15.367334139467808,15.90653267197189,16.173846480718215,0.9932151797937573,-28.274195106865434,-45.162958129057024,-26.918899195570155,13.298625330296554,38.44657495749001,30.346738637469663,5.585693255751167,-11.417229271335886,-14.427285385079847,-9.393737128623723,1.3699805220874859,17.69720761351479
291,39.60741712560285,22.635617322596286,12.862026180400996,13.296451851583022,14.915593086871208,1.1439113933633,-28.11207582541183,-46.22902264106041,-28.872389987211037,11.70905331442837,37.53940790596901,29.10635505881434,3.306978108742291,-13.776933435778666,-15.258488419372712,-8.731426184520789,1.189897711136317,14.125158327019362
292,41.0398627049642,22.01609288102466,11.212918156296315,11.722476099771072,13.946117917040656,0.7555191335694366,-28.15411938413737,-46.209212340512806,-29.14489679067462,10.830204502918,36.06365906041251,27.492694269490894,2.1939072869871707,-14.043032430022969,-14.907477684914877,-8.510686605917707,0.3088700974228235,11.371472395535857
293,42.31542649864014,21.925039590716494,11.24448622878829,12.97013336132257,16.046771630429546,2.7272125825237015,-26.7268136548064,-45.18896567534541,-28.472008846805135,11.129468986048817,36.28728401651286,28.14585589717479,3.4628466538500224,-12.37901759039172,-13.136583217829235,-6.948303341158517,1.0794597616654247,10.710745146889568
294,44.92369843379826,22.0939234985007,10.880244608312077,13.553941061428885,17.309031518716676,3.6394519363568953,-26.569595426894224,-45.52387904249561,-28.891720243033603,11.190876280220749,37.48293349372077,30.390171736357914,5.488248523529787,-11.92982073159375,-14.239531515795557,-8.280206388408985,0.7901559289161721,11.940759848643278
295,44.02421414754988,22.098817751199697,12.234561885024595,16.06032449870258,19.732455380554818,4.798978009405231,-26.76819468046465,-46.35001751189229,-29.5540787922061,11.351857719228107,38.97658478970901,33.06203600196496,8.178285688048717,-10.618096008501315,-14.668266782154996,-9.455404932151234,0.3574888180628179,13.231076681527258
296,45.35773312219188,21.32853544511323,11.625153782021487,17.34701278198401,22.138872070581257,6.325673653752559,-26.82098045663241,-46.91069622764627,-29.442469087642124,12.232730029897406,40.20504404846522,34.56638801112577,9.923857659062463,-9.343321159551854,-14.762844214459392,-10.58498315186873,0.11246052127056444,15.767812269976313
297,44.762309235924214,20.92945825977945,11.998339414274657,18.859466704925676,24.195124254701142,7.883680072509914,-26.09899542619449,-46.460065656532855,-28.79357056010182,12.816749736726774,40.47980248796073,35.19443940752917,11.763595649047028,-6.799904276943419,-13.25627930733415,-10.852577253058032,-0.2908646491993775,17.470017614850338
298,47.07000813149987,20.03018865897674,11.322148593119433,20.995697949088363,27.890402723590224,10.250386650071889,-25.652425782002606,-46.06620515641637,-27.39679806250655,13.997152586030671,40.436563178727326,35.42971305554754,14.362426840398502,-2.7771789739166426,-11.330783319295076,-12.43057450087458,-2.107314675516616,19.69115615695572
299,48.6667784429098,20.736157425647733,12.352847052286618,23.11086789831153,30.176085816230607,11.397169347631838,-25.334270087650747,-44.9661895637591,-25.020391279313674,16.088920346800563,40.86154537489199,35.24616204819786,15.704666982139452,-0.03646906262468395,-9.763273534578707,-13.164011798561168,-2.2748770490230403,23.985940694767066
300,48.56939334598928,21.229721333576926,12.8022588005875,23.222571199542717,30.281303428723653,11.96467989966894,-24.086584650659567,-43.11397640772017,-23.06603734515304,17.229404146243628,40.65519172721197,34.43383753772,15.719580371046936,1.187659459728846,-8.417556007359744,-12.355865931737112,-0.6202657008920658,28.595050994473414
301,48.89421647426975,21.62788316463329,13.19821109769313,23.745872522250174,31.239213516730697,13.56898369266191,-22.019960639881848,-41.22797429610866,-22.07716809152848,17.243205305918355,40.61626843392402,35.57906543284518,18.230113373509898,3.653210762246129,-7.677832072178785,-13.22455177851469,-0.765164280730738,31.633270900169627
302,48.01146209873613,21.584835244489543,13.4670330046477,23.74800248465423,31.04285667353566,13.91586697804966,-20.811103790311382,-40.09348137546147,-22.16748553029231,16.37393372838309,40.78686628911419,37.58777169715944,20.58026652935076,4.329171482552057,-8.827829788683374,-14.609548694345424,-0.9287781758762146,33.19308464700393
303,47.09499538631267,20.970412768769467,13.615953028129889,24.813794252544444,32.48332765749547,15.012874616516763,-20.367805045078928,-40.21701314353427,-22.559466650112437,16.248714457722805,41.5001399472611,39.117050320927845,22.064366810906385,4.823312352663182,-9.404542656698144,-15.49391711212424,-1.3083921351919505,33.68841570301571
304,46.39841443265554,21.819707291789786,15.538905007988602,27.034574834260262,34.18262201819825,15.882478446177709,-19.930314936382054,-39.690592331834026,-21.937317004266554,16.746373539426784,42.27303066868999,41.11104182531459,25.37547087424276,7.742496430773768,-9.0879801446228,-17.91082440581244,-3.80773941608458,34.003889819198754
305,43.14319681080083,22.92205981016106,18.652365252908645,29.851864295234417,36.007200753647254,17.153349019259903,-18.986552184426454,-39.41535110361668,-22.387374672000554,16.488881532091476,43.57029588896408,44.448628137697185,29.565770837398517,10.556236637279257,-9.14117415875405,-20.031292245571482,-5.120859035048007,36.23048725640156
306,41.46117237584642,23.087681181278352,19.91251573495858,31.30291095044327,37.11624833580441,17.970241403049982,-18.137557552039173,-38.49368001030636,-21.740841001970242,16.717700427912504,43.95259865028845,45.77868315179582,31.7214559831312,12.171450728171799,-9.440039806292685,-21.974483630207004,-6.64598686654326,37.18795263005009
307,40.79849200979665,23.939522453565257,21.435162621400494,32.49087413016851,37.80501165163366,18.824188786161688,-16.805986231370284,-37.38340839697981,-21.471469482818605,16.898192951105028,45.351519224330616,48.20031675608651,33.410641293018,12.21676234970603,-9.825173964983254,-21.440312054032987,-5.958529030372238,36.251618487543524
308,43.445723123400946,24.36991764204821,21.523888621366254,33.13259914714316,37.80948322308468,17.10828578985011,-19.248512266200343,-38.629107136275174,-20.979940152123312,18.113865387945438,46.38509463918228,48.98662065518039,33.85631243218491,11.645046437607428,-11.873192567298766,-24.334615733170185,-8.361196956912769,35.25418207198934
309,44.01429910491998,24.868446184816705,22.46085449714857,34.46324050745514,38.65216791576019,16.683819919617196,-20.705335761688012,-40.05080282756668,-21.34970358170441,19.087034308954657,48.108337995931635,50.30512224794329,33.84995367875772,10.423690060764974,-13.321489199629697,-25.332488706358152,-9.382883359374592,33.26306010119681
310,42.23243121200144,24.926184479706812,23.525266998333322,35.24063179949014,38.25502117740272,15.474121035249874,-21.41002763090077,-39.37471210095734,-19.780292151490244,20.333761078999526,48.36399569795831,49.83411346725503,33.25129354254735,10.088699606319427,-13.252288048865825,-24.9253112068115,-8.927169669304973,33.475811301730516
311,42.59820858225297,23.70052143326065,22.365276905129335,34.78106532569649,37.178299561135404,13.04916863527979,-23.447886011855324,-38.919944745957835,-17.501060565791494,21.580120878156784,47.16652523214151,47.80188364881229,32.48833374744655,10.305052724880339,-14.060440985729068,-27.415689090950107,-11.213133981683454,33.65151662800221
312,41.49747733818168,23.174804548849327,21.958484749044878,33.83681120727318,35.46541045253956,11.247872104038262,-24.319884939443646,-38.71781696430187,-17.172243300236197,21.214895132468975,46.430070237259656,47.56175693355357,32.83828748469789,10.36807884507961,-15.053496624936225,-29.27435961019722,-13.0807213878712,32.44850652636634
313,40.08552867663302,23.080194709287746,22.466054427284245,34.31739372228027,35.77825349202686,11.338608499018989,-24.799818839591822,-40.0104248558214,-18.754953492088298,20.445687867937846,47.08907056321314,49.034842926069565,33.801878765795216,10.005651996813052,-16.456957136155896,-30.809602989337083,-13.982055810174666,32.53994131984327
314,38.06952399634423,22.555753535089966,22.674557689652914,34.64709784979398,36.17853892704795,11.633564734403183,-25.35929788090233,-41.882281955186734,-21.06018090336225,19.31188970652878,47.57072924232578,49.74543549341361,33.25409646844066,8.628205783991458,-16.812799260886365,-29.427060242425757,-12.517759261179108,31.9488494229182
315,36.386189281248775,21.662279188693113,22.418244900789766,34.46087444915724,35.35280551849799,10.15104693756024,-26.597524098161085,-42.01568641119697,-20.31201725196832,19.819561867161326,46.95864699573187,48.12383090041402,31.451026495768176,7.459736827467719,-17.045645348424557,-29.060019931112407,-12.302854112366875,31.36938908621445
316,34.97928045679128,18.985600790689407,20.147475051138684,33.79785489465783,35.354688347699614,9.050325217685344,-28.839363545530052,-43.628320296173555,-20.395125475317,19.749281463606714,45.04664252944519,44.99869892452074,29.513173472775442,7.484029133887927,-16.969917706776855,-30.559289187373142,-14.130125450923256,31.58114205379475
317,35.07193060048819,17.52630031330703,17.695723094242172,31.038387773796707,32.90894729303055,7.4590470687287835,-29.244768166746876,-43.03753385973531,-19.65978415488891,19.510690584639494,43.22490197515311,42.04079104137644,26.753602501988297,6.299912718928436,-16.192771967738604,-28.98285938238474,-14.001150309931408,28.36680299944826
318,37.51082418128035,16.154817270072158,14.912135984199848,28.724902417648796,31.039847871927297,5.495355029870268,-30.87735009162888,-43.573846444882435,-19.340250073139252,19.56701602712282,42.23767281911438,40.11179400766764,24.474210730156337,4.36985073236213,-17.247721125015424,-29.48678229422818,-15.536298540846929,23.994734536293667
319,37.07515067013096,14.729758897808281,13.29208462597502,27.472522513158005,30.099894884294546,4.663218094296922,-31.644915059348094,-44.39581004849096,-20.45882001626962,18.20007438625196,41.04609493465717,39.34685557643109,23.95143589566142,3.9758971536260757,-17.314650814511985,-29.539538452171847,-17.092794566287566,19.19348853470745
320,37.70673077008852,12.932402136428685,10.498169431393368,25.21552805956287,29.21024613056405,5.34347745510079,-29.73239411636091,-42.33492087387569,-19.760051161013337,16.729826674686375,38.095404820424285,36.541855900976365,22.58881134565074,4.349432494306324,-15.815476833015785,-28.25101858315071,-17.870117976079076,14.781318613077817
321,37.49973624547547,11.138126286527399,8.034853875451274,23.019532602895186,27.84049573412787,5.03057797064727,-29.172394919173847,-41.66746782314136,-19.981048733268192,15.152282599463883,35.50856735998226,33.683749991923285,20.215073036159765,3.2273168960313274,-15.323525259704835,-27.252728663564557,-19.198486526353594,8.385842088428062
322,36.874633083873334,8.103898207309959,4.559881087552026,20.723402782084484,26.722867494712084,4.452071568671254,-29.455437410354147,-41.96785665656559,-21.176478905062257,12.552059597007098,32.37569383783166,31.501383883980363,19.406792003004067,2.879257182194521,-16.203728151861657,-28.870535760504513,-21.37360343619068,5.634315786548775
323,37.32412935637242,6.460442073792113,2.1107029232642547,18.578001895688793,25.112190680981307,3.3994503799486724,-29.62156858370374,-41.22623907908961,-20.412598016124534,12.197667653319463,30.683805906859018,29.326268492050584,17.722622999433842,1.9872684406239853,-16.625562772511255,-29.39186105434456,-22.637082240922943,3.0684259387148307
324,37.22383925837697,6.600596351911605,2.0460762856953245,17.651590360484512,23.24701518314916,1.512567559183722,-30.37764293532885,-40.64958838058295,-19.373206073182832,12.748092354499105,30.382717910416268,28.143414648640704,15.759321032583786,-0.14001902989325454,-17.87913439462096,-29.50041016438536,-22.87241260869641,1.073617964301835
325,37.64673141466454,6.887483391119052,1.9361926928502333,16.710681954106413,21.564087106179844,0.05568646868896355,-30.62680910157874,-39.876170565195,-18.70660781376384,12.630993006199523,29.782756938005857,27.369445990795835,14.482263188340118,-2.0640770417614926,-19.66339797724995,-30.316263223478295,-23.073137897880812,0.5036758073509768
326,35.788486497634544,4.940649755684462,0.0802302585422702,14.965956131051039,19.79432120912935,-1.5273324617449848,-31.444639569106876,-39.82060845406031,-18.68583847447484,11.46606694522004,27.334429532508462,24.738914751117967,12.727180838414531,-3.0223081316192144,-20.7120646367564,-31.96527303869423,-24.93391977900307,-0.9609843544546052
327,33.20763501279138,3.8055734353478314,-0.2898473160344116,14.472838079789419,18.75156770662886,-2.712697367117905,-32.06741599664608,-39.828510027965585,-18.778937482588,10.775623529215068,26.371583246969113,24.12195236254839,12.497231634187758,-3.3560513052366896,-21.42461817329426,-32.77729766557216,-25.356077175043225,-0.6819915486404864
328,31.99916366995103,3.409741537077076,-0.6791672101135605,13.413768512235846,17.307309100714825,-3.516561098203487,-31.633481918135857,-38.77633510412506,-18.328008480689,10.121784344189019,25.227983078253143,23.328492747499965,12.197580621872934,-3.5899818421947933,-21.879941391482248,-33.32481127026942,-25.731247312703236,-0.7379498685120695
329,31.315602848835166,1.8006234405244834,-2.173296994703381,12.927168357731592,17.8416681394534,-2.477685095931786,-30.623690275509464,-38.297307088169575,-18.761643799742185,8.94165733279222,24.09656532091857,22.974576313439663,12.603977281283576,-2.9961239258388845,-21.589890340030042,-33.61262894569245,-26.977125525761245,-3.416623895144022
330,30.94331095265088,2.22951838869038,-1.7438724420169462,12.426307943499747,16.49004004586677,-3.2924697113082866,-29.551285639271274,-35.66651804501338,-16.372322348564172,9.75691675516302,23.693347172491073,22.544850921232023,12.750673197196713,-2.426295042042285,-20.87384966927283,-33.14653340298694,-27.682353502822203,-6.305205991538865
331,26.9833503974255,1.1745118640082701,-1.1651800399829608,13.153019120522528,16.5656457463722,-3.6232168822769943,-29.54359436415942,-35.10750286465057,-15.94962568986899,9.328117934754479,22.783161885666015,22.42295884119634,14.08690980110277,-0.5799107438733916,-20.172457586458652,-33.98521735814399,-28.517279454826017,-5.258979735016039
332,23.83507584799956,0.7489727311081122,0.06339966289203346,14.894900937487279,17.975245846763254,-3.218667492973509,-30.491743156735996,-36.99360956111838,-17.68539919603998,8.704982246306036,23.46325291646287,23.91597189863925,15.592132466086005,0.03835916781735393,-20.989152010605007,-35.57782739126819,-28.813950493220265,-2.1815006641085355
333,21.838552732262166,2.224051897234875,2.2649324317637687,15.655853165150807,17.662012177354075,-3.2052460152574334,-30.101286990171214,-37.42793530237512,-19.24430330931102,7.593568946634011,24.584926942101347,27.06704352417164,18.4858138938873,0.35266908056555585,-23.569677471773062,-38.999039455469656,-29.888720904832297,1.5511600359590128
334,21.30820206759295,1.1567480377405124,1.4258734231068855,15.86430275111089,18.87153355428513,-1.7357391082209541,-28.952413376998102,-36.76507806699628,-19.268485356990517,6.674653181513577,23.355944888893593,26.958099064219127,20.135045928137053,2.1566093490961755,-24.069783332087038,-41.71387943737873,-31.02209917530621,6.148420199962936
335,21.39405581144852,0.058640759804028234,0.050251625313301136,15.17418635738207,19.06208788089595,-1.0992150273238,-28.320658855253857,-36.431292642867305,-19.55510520048383,5.599053890322378,21.969271820861806,26.247966483936384,20.575382124545445,3.000552381886648,-23.990350706040093,-42.347091205138646,-30.62682841535725,9.445959527252716
336,17.54386434167455,-0.010500374075476467,1.5791220250630713,16.18787532497544,19.000137622721518,-1.5241346201445964,-28.326401794726852,-35.972361584019424,-19.227514732698438,5.298562648630314,21.364041965502356,26.32431659688705,21.75735114502729,4.173848863702916,-24.53646809372058,-44.57387919404626,-31.859728542557946,12.227685590048564
337,12.842130159792351,0.21397908693810364,3.975324900827781,17.921349393627736,19.04042814626425,-2.6298442018317525,-29.678209974586142,-36.96077997449548,-19.510637611398874,5.757335501206866,22.16347507629434,26.86028235578462,21.691724849823885,3.5669807502053805,-25.41126354788999,-45.21497236180257,-31.372621894817726,14.789081042565737
338,11.870190120275119,1.198013699451791,5.963685736892741,19.38527858834176,18.73368063615215,-4.37134751712808,-30.90435356084441,-36.06580755035291,-17.10096328559162,7.581500719291822,22.37857249703358,26.579731600928536,22.253195570888373,4.304214159021877,-26.411482363681348,-48.073155095077254,-33.17126572075661,17.3598226409541
339,7.363618653745725,1.858751743592655,8.228577626861686,19.927922317568527,17.12349668871187,-6.274210710693571,-31.30862632866836,-34.746310106612974,-15.204440787397642,8.6755789121771,22.19864671524042,25.85231433709608,21.87759569019198,3.994311912999321,-27.84351054767248,-50.59898537671189,-34.327634548373354,20.513394813813495
340,5.232526613792827,0.9933630935316897,7.715136598874219,18.93882942690505,15.752262489941252,-7.204556074971655,-31.216698105644024,-33.96996358379867,-14.699535379783816,8.193146791524022,20.732908148442036,23.89176594650099,19.923840345484606,2.3512391911163717,-29.081806303926967,-51.601863745779475,-35.51395399988636,18.76600493992828
341,2.9633655998245727,-0.2530059565157812,7.061228947721144,18.28742615236248,14.845661357858003,-8.119117155357577,-31.928715748686404,-34.873692056845876,-16.38746633463604,5.895159084089602,18.7849779791514,22.87877055662592,19.344748425975315,1.3902307663695554,-30.526615928482443,-53.14621364320917,-37.1729974550075,16.59700378593951
342,1.0745452775147184,-0.852580818246711,6.554581694258679,16.920027944524897,12.883606672645179,-9.849450751168696,-33.300534593912126,-36.58459330481618,-18.878738761039717,3.1635519080720624,16.726442930175807,21.703555352421656,18.415081128013842,0.053271112845720676,-32.322241535006505,-55.1386046180314,-39.34138617418357,14.055340901131672
343,-0.7367528609123966,-2.3401223017380475,5.430431651869724,15.9703669798589,11.867280387379845,-10.724074576650139,-33.66711792206797,-36.82439383734688,-20.02887221300796,0.7838158386704831,14.213310891590815,20.336876339876092,18.092886576749684,-0.46907389992167026,-33.84278193098445,-57.2092020692105,-40.93377793330158,13.615840514933803
344,0.51075004942918,-3.9155975703854775,3.583049246808874,15.084322112459017,10.736453096910937,-12.501258096470021,-33.969102402101946,-34.17097929618322,-16.631155349095295,1.2953662632896514,11.307207984156955,16.87952301858563,16.43367609072289,-0.8694876649100718,-34.65129494735342,-58.67279773389272,-41.839988486369286,14.319729016692042
345,-1.5168223583012896,-5.536366853567056,3.084459800729482,15.418238808913165,10.601337229282375,-13.361031329526579,-34.14824929001399,-32.804799149182955,-15.060977706541944,1.0787106444548387,9.134067839494922,14.300747765466905,14.700725531684974,-1.671767316009496,-34.862161307616695,-58.69355168873101,-42.55043681841207,11.883561686559068
