,Fp1 - F7,F7 - T3,T3 - T5,T5 - O1,Fp2 - F8,F8 - T4,T4 - T6,T6 - O2,Fp1 - F3,F3 - C3,C3 - P3,P3 - O1,Fp2 - F4,F4 - C4,C4 - P4,P4 - O2,Fz - Cz,Cz - Pz
0,46.21143353001256,11.950154531730169,-11.02894174440369,-18.77441461276183,-15.150595491549105,-5.945892940859736,6.550687468710444,20.24149621829925,26.826227518673402,17.15876993016926,-3.938090140644897,-16.94815529044652,-9.681645845974765,6.059383169781336,10.17660789269474,2.612723902830236,2.316572043673893,17.46837803845694
1,45.38694923876109,26.04446446546295,-0.9082393674817426,-25.59700319848641,-30.48671370098462,-13.322980010174879,10.431332008089074,24.944783503744294,24.889399313098078,12.630167478214473,-4.3174655848134815,-13.851132717924747,-8.541573506600793,3.7831260304955743,8.25434194695702,3.598278996992958,3.951177420860133,16.54184306624746
2,44.4934345670415,49.24559236825684,16.103603464449098,-35.77356801255252,-54.57944747011326,-24.854394899484404,17.064501481547204,33.133482605380884,22.46729027704193,5.921338740925672,-4.438593648652994,-8.423175794330168,-6.381482852977682,0.4381824308301293,5.880370666484884,6.419871971972569,7.657664337342662,15.095444738292764
3,46.02418605968799,55.51118805920436,20.1022317459714,-38.75361824495336,-60.976191295364295,-27.853376456053507,19.1093270163902,36.03182787160902,22.70702326110948,4.644785566051633,-4.429013714838054,-6.982799720102909,-5.582391203304738,-0.22787646881928073,5.175790444635628,6.980649995674959,8.921338372362545,15.919544488200211
4,47.41187683675011,42.47916873182958,10.206846449273122,-33.259132840057774,-47.461300363450995,-21.26276868698111,15.607433475963472,31.748601048639447,24.426962489766375,8.806657192049741,-3.985398321723529,-9.915276195162818,-7.110565995097168,1.2991827744148923,6.900519397512912,6.666620718688257,7.9204263103228,16.32351819425983
5,45.49464353475438,28.20511703708596,0.5527886452379683,-26.86270535314531,-33.262266687507505,-14.827554902793759,10.993345899227185,25.66696393580482,24.02896910357395,10.971360234259294,-4.772716446101623,-12.790589624217585,-7.683076826678176,3.187945965148651,7.006904209202437,3.1640160816816953,4.546692950223254,17.546799146839717
6,44.33241357757504,2.3557099673074386,-17.600396705453036,-15.16403872464875,-6.661591538047776,-2.3827476982484304,3.136417346199735,15.687941091002996,25.439752859090614,17.302879087481813,-4.956584718324104,-18.227138431568488,-9.077700661309926,7.647104613239388,9.722623492640917,-0.5430327509637187,-0.4916178808247141,18.19286784236918
7,42.2646036240595,-13.85196689621023,-28.42247929625371,-7.380120620097314,10.340183570666303,5.799245103328782,-1.6022381749587589,9.017361779786809,25.525103808576034,20.92452030200858,-4.552627901609753,-20.92491283020952,-10.015283515136653,9.670112275866556,11.020585888208343,-2.2502460046606987,-2.6688142469814986,18.9147191920231
8,42.37697391139333,-23.309478813997533,-34.899213038912,-2.1961896979042352,21.502482463067707,11.502764434091958,-4.128052518947891,5.293908317226416,26.451473342400657,24.53766402084593,-3.0485891226305544,-22.051176235421465,-10.600651372095566,11.127960581927969,12.739400119929929,-1.994618058079834,-3.1690151620012097,19.023127327025893
9,41.62871580824938,-25.589853073244587,-35.78851306813802,0.16150294989007846,25.250480796840414,13.34152362567107,-4.975002050019592,3.9839208822955494,26.76390742234958,26.121333711045928,-1.8606255575159498,-21.922778545711086,-10.838753584566966,11.145147032352352,12.817996100400153,-2.054927931948525,-2.8018687425417466,20.586231893439855
10,39.40457250280987,-19.65786307496602,-30.792328401150222,-2.3874095301126292,18.365781608055922,9.410218245964545,-4.083586141962384,5.593634958962582,26.02701730207071,24.589465544656765,-1.7346530621949845,-20.81558604654923,-11.099734816032646,9.23946708816259,11.288986390292106,-1.9214363913188954,-1.9700001696672869,20.74374593459699
11,41.014465261660625,-9.441102544442312,-23.960207807938733,-7.300937516628607,7.233198834087236,3.373526232975119,-1.8494521034578846,9.808722273546726,26.76995266854057,23.363641045656586,-1.2921044470136056,-19.21746123807525,-11.471831857076992,6.685591759272308,9.758546920689914,-0.703387656854489,-0.4401534482437556,19.333973751532625
12,38.410885669120816,-7.78596927298549,-21.0033755401396,-5.68651553556071,7.435359981416326,3.560795077191574,-1.125896850432731,10.409056411511223,26.815542910604183,23.381747882001722,-0.699684087127816,-18.24535670081856,-10.655192716742654,7.371942446432367,10.798401521698231,0.7389814938779454,0.7262655549108044,19.572639459552825
13,39.97922349663688,-15.909599961653175,-27.982821717007564,-3.687906377417589,14.551999035263298,7.233938817912743,-2.865000005438046,8.249932853236766,27.630788932998403,24.895154779586296,-1.6496050916688862,-20.788940949706404,-11.778826829805435,8.225061677648503,11.414485018870343,-0.3378605833888692,-1.013210415556779,18.622410079997454
14,41.921961322442435,-10.953614987744466,-25.90527466983125,-8.145150925939653,7.400502078215871,3.927099498499366,-1.0338045061409755,10.732191775349513,27.0491759179049,22.47796531765271,-2.730616893508046,-20.139986483509908,-11.600725874075444,6.902842675367768,10.05811639818012,-0.42931485396547275,-0.9020750101510586,17.08543904675245
15,40.932852479150924,-9.570934495861357,-24.552998335021428,-8.602599382961433,6.006782559585688,3.4613265995537517,-0.5238211073480988,10.491562708264437,25.226543444864703,20.494848294660457,-3.0675425462789145,-18.98848438563632,-10.618296543082748,6.959206846224621,10.077239527354639,0.20844430297480343,-0.7450652238082183,15.139273978874884
16,41.322534355389976,-14.285909572731198,-28.758838455404824,-8.067480671697824,9.395945924092292,5.020315327734919,-2.2015797662370367,8.170668591521855,24.441955890347554,20.37077755427989,-4.201406966172855,-20.697684653119946,-11.234634050025859,7.483047513822309,9.9182562498596,-1.6170808683932982,-2.8130285371891532,14.764547240245646
17,44.357884336418294,-14.902465548217465,-31.085609691221954,-10.151783292968476,8.17223837466273,4.304318947980207,-2.6523483431850035,8.13183341035087,24.767456945019706,20.48796504853978,-4.911602938430133,-22.24637285433104,-12.985044637752383,6.27310605095381,9.557445367252889,-1.4197757934498518,-2.7569055351276357,14.01701591353278
18,46.86580169408203,-13.257906902651724,-30.753165374143723,-11.245227271711684,6.359787303829927,2.7742219186478287,-3.373352876756801,8.160196062432732,25.23577345891703,21.006026707600785,-4.761597460374372,-22.660819561764228,-13.75492408823777,5.498667468683114,8.8945136277161,-2.0108023460064954,-3.1441329635896627,14.081103717737692
19,44.77069132011447,-12.888740956228682,-29.71289243601115,-10.944058211126531,6.182376223930618,2.9389636619422497,-3.017105744397043,7.931466226754853,24.473945346098443,20.737560719074487,-3.984745658513973,-21.608989610189106,-13.470766515941024,5.136498180155148,8.943384400894223,-1.1038676916703738,-2.244759660866598,13.872452906889434
20,43.78236813913312,-14.546547722690981,-30.696878225000518,-10.344377611578238,7.609159577693398,3.7532322538382012,-3.1972546686592422,7.574103923927342,24.55501763768933,20.853563118858403,-4.476697103643595,-22.5538783823824,-14.119455861368952,5.1341738998134385,9.24955828815582,-0.7946118152742164,-1.6268409845329999,15.325629318623525
21,45.13156015021296,-13.763917275789446,-31.00367071307043,-11.715311182743907,6.2347760800081,3.3880144472568996,-2.7849529154392823,7.71682575590193,24.039733120670448,20.408272350437198,-4.128192469107295,-21.728559464288146,-13.702190962800657,4.901732633785508,8.99981452011891,-0.5234865066387294,-1.116735500446758,15.467006365719511
22,46.17134277309796,-10.223506113966408,-28.36568201059511,-12.475754702143835,3.3831424332609106,1.4688825436260178,-2.6932234333907945,8.543447566606407,24.403398828718135,20.51274361612614,-3.7728488216260865,-21.41073549745807,-13.917273822931499,4.414004896415356,8.890417394269129,-0.33045326061352953,-1.6270541304970365,13.313536811104411
23,45.42139824369885,-12.49599878201086,-29.54766892470194,-10.803945400096639,6.565076244977346,3.4612224165067027,-2.865266226299981,7.442761849016501,23.81160085645033,20.651829315887795,-3.3613468138687836,-20.90764510541099,-13.250197767527332,5.108839421554658,9.325257294132184,-0.23571827045727853,-1.7402149592914735,13.066573455501498
24,42.856561148957155,-14.248258330924651,-30.45869261433075,-11.11022470751321,6.362882810196584,2.9504619812827086,-3.882957119423073,5.8146653780943485,21.74801083245615,18.883165379994228,-4.05761794899155,-20.740459627777174,-13.422645709753045,3.7966909612523123,7.435952212054194,-1.6543547210974408,-2.516711345261266,12.414391225392887
25,40.62386008492952,-11.446879920913553,-27.358159554253376,-11.240775452954667,4.515797888924041,2.851822540130686,-1.9108408760110862,7.031150362370843,20.635379156416107,17.28659703421528,-3.6938452366724985,-18.694439013133614,-11.89063082219064,3.9532308216253482,7.505488946302664,-0.7168017269494118,-1.899875145477931,10.926832062733856
26,41.31098069306565,-10.452676145276993,-27.082007242525506,-12.204808574774978,3.1327465688065126,2.123378663771978,-2.027538755754754,6.666219979805483,19.73594991119518,16.558737780085515,-3.6087766303691646,-18.160668718758274,-11.834554792861553,3.1589421310057566,6.36386909423265,-1.5139312935690354,-2.107284278824614,11.241764096003758
27,42.87093469238589,-12.06159904313456,-28.901349196814774,-12.0624338869226,4.301419280142201,2.20755029842978,-3.2060722562160673,5.964665676654797,20.462447349354882,17.529255977950854,-3.9718414262033854,-19.696874248382258,-13.051606473776536,2.998290401371227,6.466473168621762,-2.169597456285151,-3.5667157844585797,9.396706079709737
28,43.981180218113565,-15.15527383860448,-31.733475179070503,-11.35729501124948,7.055819609267613,3.5330265726936743,-4.143300338157122,4.878897766544806,20.82673849801247,18.537410875450085,-3.7837198993695473,-20.312660368812498,-13.41528699407166,3.2193826276239994,6.537230639310142,-2.866373661364577,-4.843922533973009,7.8833517190716895
29,40.929478297523886,-13.282478644283788,-29.07140979752899,-11.269496720247073,5.208051214376654,2.3432315375139092,-3.9386558500920854,4.937295686884317,19.67771469237828,17.15225997417236,-3.9824576464142636,-19.462649225803837,-12.820996873113202,2.94939523879142,6.06347412466615,-2.806188389656907,-4.356848162873105,8.41649313302353
30,40.37625428795865,-15.37287957105679,-30.546833213629625,-10.750095845801514,6.671599944006584,3.001185858215478,-4.265228431859191,4.672715848198695,19.85837096554992,17.111277672071914,-4.60631635809862,-20.051631546567464,-12.800187270904706,3.1217394464098227,5.462814302410897,-4.3205042886532015,-5.936509718243448,7.600802461109183
31,40.57145795251193,-14.271626683245211,-30.46832695244764,-12.75668308187945,3.9206189180132407,1.3756984542514594,-4.778511543879284,3.8114425016614013,18.05257900626007,15.34544861115025,-5.395400284679798,-20.307700406020814,-13.551929682002918,1.772670925937819,4.373681854463885,-4.626228581091997,-5.955678660191943,7.127794755291752
32,40.91038668091802,-13.711991530334014,-29.945492367916298,-12.265222079809366,4.753737369797258,2.621681916540488,-3.7762747970908563,3.8645191136829666,17.432864372232448,15.225754626504036,-4.229110513630128,-18.367037609852783,-12.022867273480855,2.3742239070259146,4.587606700807571,-4.088744463578403,-5.028092911665102,8.142848865603874
33,41.102142193539045,-14.020694248503686,-30.198049025567325,-12.162745939627511,4.963026314892683,2.693080378122635,-3.72566695539647,3.983293426967916,17.377549865225838,14.840971626413822,-4.626464368137921,-18.407360103704953,-11.847831585150256,2.3742789980035597,4.422032458473769,-4.060883483297054,-4.678622956214409,8.651563338636674
34,38.37349668934495,-11.17471342401209,-27.108284659237583,-12.954834288030513,1.7834513800909069,1.2963041056378548,-2.1633711317617315,5.793397349581193,17.018337395662424,13.20402687085905,-5.130061774331294,-17.20030748105553,-10.488197801108564,2.629420303613748,3.9907382451309266,-4.24651550368091,-4.551727674682071,8.701577086342297
35,36.3278311910895,-10.349069215010234,-26.227577416043736,-14.182829335229743,-0.7870319747953073,-0.43728880021514127,-2.3281494678666705,5.980859940443519,16.278116047638633,11.591576166969203,-6.755417723142541,-18.316210103450175,-11.167547038199539,2.1228659180087055,3.4146944117265075,-5.1512606626644155,-5.987417001588105,6.7073267087272095
36,35.559703446605724,-11.305274545976108,-26.65822918151168,-13.669691591277354,0.17365158666482544,0.1284410183520657,-2.4006335796025353,5.7196069648550845,16.212054992264473,11.533295297188701,-7.179679393696569,-19.004509167004592,-11.528207919200788,2.525421548800499,4.340726572353324,-4.505617673282502,-6.509714405501735,4.4401632324173335
37,37.84896499450173,-13.362214848163402,-29.218285195415238,-13.82733502952763,1.6044464457764755,0.9332139756744894,-2.542170431409277,5.885132663024162,17.00464690021762,11.866129960642917,-7.912800371097766,-19.967186680207135,-11.732658557784994,2.9027865198813756,4.440815469282175,-5.04217790061339,-7.398760483249921,3.4168696156797345
38,37.59668465516138,-14.028885390852034,-29.76295990220757,-13.923531765513653,1.70094524310642,0.8587761021152969,-2.730767871469404,5.871238657692824,17.164575576966183,11.876650246960864,-8.246773535027115,-20.47386907421961,-12.119472118976878,2.741481383279502,4.405486639330036,-5.132219209052502,-7.753518136132224,2.6082010941710485
39,36.05662807246481,-16.995227021910154,-31.24764762699271,-12.232539721253854,4.556764224626434,1.6766548783153112,-4.612040726327269,3.2710617072311527,15.69273189357919,11.727331519891706,-7.630332809501849,-19.44725280368803,-11.179768531043191,2.676269548528886,2.8468738768374737,-7.368748132798372,-8.975289248563119,3.66375359169454
40,33.666498640647674,-14.190312079434737,-28.329271220415006,-12.894733638774271,1.9223654507976775,0.6207683750234816,-3.6307450769415435,3.9134649189792547,14.8535720723456,10.893260809533395,-7.110847383710311,-18.503376502882514,-11.388734954266708,1.6449809761995364,2.8052490987780176,-5.761265597692518,-7.211584145595181,3.865151791904941
41,33.59445793899586,-11.027962058301467,-26.145772370662673,-14.619395160964208,-1.9175953329697626,-1.5606346248742409,-2.9586534229730037,5.541580371736112,15.470281131577341,10.37153074355911,-7.933211456557665,-19.14438101934228,-11.777430243537745,1.5184434722367346,2.7906162073731644,-5.942918274320139,-7.520512556863036,3.8257187357077793
42,34.09326996650757,-4.1428724838372215,-21.866340522374728,-18.854502538579776,-9.933382664898655,-4.77361890598406,0.25738748087448793,9.451262027610696,15.572688851322335,8.192329949733795,-8.914740617112454,-18.669876176809716,-11.859719650848701,0.6241501171756288,2.956216892477862,-4.108105476331696,-6.2971857863722445,1.8600144682857778
43,34.978620291855165,-12.699306648368962,-28.942280567994434,-16.65438015217556,-2.7042968268280254,-1.43190931948402,-1.9584680345701777,7.466794559596136,17.46346021899604,10.809383323261759,-9.783280585028306,-22.002506990383235,-13.448798372358885,1.968334177361325,4.3437017628782835,-4.881288716034015,-7.691440481779721,2.38262864739173
44,37.144057502833604,-14.581305734028787,-31.375313602865035,-16.586444520843546,-0.48092544263328596,0.48423902207136177,-1.639978363291117,7.129791835561949,17.79136209752987,11.767661084898863,-9.059310368974712,-21.747053318561875,-13.121866162491049,2.619640680395554,4.884218162951018,-4.734892104432387,-7.436112353010146,3.3978612709107967
45,36.22291371024232,-8.898300311998774,-27.24119050520057,-19.71903413966783,-7.342559387189675,-2.9942174622759823,-0.4352418997766529,8.177464862439063,15.443596267027468,8.543419786618719,-9.341761837212257,-19.563388083722458,-12.090433474372823,1.0305879180572708,2.849645444946584,-5.20924131989029,-7.4826695253723186,1.5668835639800056
46,33.14737178697895,-7.8912701109998515,-25.77718693624781,-20.47940404325024,-9.351173890697662,-4.025852480857442,-0.5269318358429879,7.099696479608493,12.725925048490257,5.896754995826728,-10.152273649366832,-18.895827723503423,-11.641380878994399,0.41849745189078136,1.747835437098423,-6.127543670487429,-8.403612493741985,0.16629737005529957
47,35.771570778458894,-9.497655766222376,-28.562973131231555,-21.694399428567763,-8.914310496638947,-3.5854900503228087,-1.0909679167794857,5.962568882638469,11.83879013389288,5.469543798391512,-10.452812661227508,-19.423479628813688,-12.48818077676017,-0.511028300263782,1.1895460977116437,-6.0677591788957965,-8.064030643769195,0.1767019895245418
48,38.910294724299035,-9.869274253496918,-29.83965801716454,-21.776978200718325,-8.17524538041255,-3.4034196673042323,-1.4346285932287546,6.464893936093539,13.75799102068212,7.6178591394357,-9.521341375824553,-19.69131565249508,-12.800763097305879,-0.1800889404475297,1.8309473823665496,-5.481676354037258,-7.117774596602119,2.124313122430151
49,40.150355575010295,-8.108683398377394,-29.11068632593067,-22.761258317260037,-9.501549331172486,-3.4965839282391094,-0.5122999279006483,7.1210291521064395,13.83998186629729,7.986916653072753,-8.488321735969183,-18.84142230201765,-12.944500786363312,-0.8341659524985657,1.865892174652713,-4.356919712260776,-5.710171451438618,2.8823542377340425
50,42.44338703267163,-4.992933657988393,-27.622737841619188,-24.350527630870562,-12.421002311716396,-4.978773026735008,-0.10466629530687359,7.620361453398485,13.304463715689252,7.378849572717661,-7.912456906026467,-17.55034495840833,-12.445358785266725,-1.5144693767511592,1.1556933333058965,-4.197862633005501,-5.323275989970244,2.3397999885842182
51,40.3380194801744,-4.273860356188762,-26.806372458586708,-25.45744544047098,-14.609627068139378,-6.3217219138663925,-0.4344563236175884,6.787457505596537,11.283528622873284,5.438965734377092,-8.32903815483745,-16.827588634491725,-12.25744932157445,-2.708860141302139,-0.6833453478499465,-5.674544299866079,-6.407728401789144,1.160852064138941
52,37.35304503516618,-1.7900661186124665,-24.48390783736251,-27.420980526059154,-18.919715660383932,-8.625760883418057,0.030325536834647823,7.035141947483389,9.400903424658436,2.9729820628744323,-9.210891596692326,-16.4989824663585,-12.61334505113835,-4.115166605939626,-1.6553836504226678,-5.519770176522511,-6.718371492860031,-1.6242497135080898
53,36.59677207462243,-3.988722275361314,-25.486623774602307,-25.500778084591094,-15.542034050157893,-6.527228112343713,0.05412876714859453,6.473846006592554,9.742264690365506,4.209445711764158,-7.840388266647141,-15.346945614223305,-11.692251097996708,-3.687210836332171,-2.038350454634275,-6.376494169184181,-7.021326293218801,-0.519979816140254
54,33.55830578687786,-1.2351691029172265,-22.17846494799775,-25.72708081615125,-18.229338100242302,-8.244647204392965,0.36507236391821557,7.08392950244907,9.188920516809526,2.8528632302083965,-9.078898896732515,-16.197240229416618,-12.12556862689566,-3.403657253918946,-0.9742660935678122,-5.147255245599277,-6.376942173514124,-0.6735091920292283
55,37.454291226915494,2.800532165250505,-20.814273991952007,-28.399256088847306,-22.30900821006063,-9.958147675014013,1.8021537402580357,9.438322108002447,10.47197771908918,3.0912513634572756,-9.099570936384428,-16.378574858009486,-12.646065855140735,-3.8161322918445806,-0.5851756561803094,-4.0584019160222224,-5.578168763321776,-1.0541664474538293
56,38.24198867600589,0.260204982228923,-23.175156360073668,-28.101216929605012,-20.594679145744532,-9.449923145166448,0.6737486251000395,8.460300672913862,10.886092854935406,4.186528650988356,-8.700514992235409,-17.11107219179585,-13.958598239318988,-4.990923591166304,-1.2137685274645933,-4.171486864472063,-5.70314622917692,-1.8869660953328329
57,38.64765454097368,-2.141947588461567,-25.154153803843613,-27.425120035619763,-18.594274939035152,-8.628168673636027,0.18846767880487364,8.627319516652378,12.522797684064379,5.6898967233738995,-9.057862837352332,-18.823743892209524,-15.056992308678561,-4.527427951081824,-0.04061618260369217,-3.4227870498813684,-5.4668346332378155,-1.7209583676049274
58,39.764501454215,-1.7586918285939501,-25.54083174735867,-28.20957660451985,-19.029188102219976,-8.33810374829139,0.7912999082017493,8.919186813180094,12.442660248265724,5.669481830427065,-8.783353360217566,-18.501897264022464,-15.007954776697696,-4.71481205691101,-0.1507852171155333,-3.200288378432157,-4.841614629551779,-0.6898463750944357
59,37.09383479722412,-0.9861364948943739,-24.109883573944956,-28.375978846792272,-20.44201809068908,-9.34456426248924,0.7383300685592912,8.87141099077612,11.511908916255543,4.1475720365953315,-9.927090241358908,-18.733518531302465,-14.65388833176102,-4.550522791378727,-0.6886116744992196,-4.13864360761024,-5.056850487747653,1.0034666486816068
60,35.829124814617025,1.4509996623495491,-21.949922052761565,-29.439755120752533,-23.39934496857389,-10.91511004700465,1.6107041098212451,10.415216382436192,11.942077539073319,3.562097129594149,-10.518565737130439,-19.007151569324932,-14.966734463350008,-5.026075225499526,-1.0322140807324025,-4.158645222267513,-4.840852719791581,1.4161981728580177
61,35.804645865342096,0.4969032082681238,-22.03631632019903,-27.880947286960353,-21.678661058000596,-10.501359733804712,1.528910955355687,11.721584269041047,14.726570595563572,5.7788890720956445,-10.486006516919133,-20.481254130341846,-16.04948979319036,-4.782023388347287,-0.019316588355072103,-3.2376658386666417,-4.21405143798195,1.9355896609127203
62,36.83981477728532,-0.979993856200779,-23.09988931630769,-26.637077329777885,-19.665221456590906,-10.180929015367953,0.39620363095168176,11.62963795705183,16.746442033049032,8.027500801866305,-10.186110224995582,-21.717521902170933,-16.717522486053078,-4.173039438547668,0.46110548470565893,-3.9037861349758542,-4.797902509019441,3.346322888033391
63,36.77637119896229,-0.5648711144682327,-22.18541729032166,-25.304638841617145,-18.276185628376524,-9.312575144611095,0.4355549867962921,11.239903011465554,16.743461632608685,8.77978527253636,-9.160234955572143,-21.14240169311594,-16.69835456375205,-4.142489726146942,1.0195970659025044,-2.903679002600711,-3.8772944632536617,3.7630500773837072
64,37.46129027859857,0.833164491616666,-21.036799832400057,-24.99323299298812,-18.33890558514812,-9.132690162816038,0.71855856368702,11.196593968680293,16.5877996550953,9.186880969501704,-8.07561079924,-20.093015698699443,-16.325508296987795,-4.23669170185293,1.1706049087171781,-2.180560365284451,-2.9051127948869424,4.56568774441268
65,37.93877854805729,4.025746383682352,-18.801377656403094,-26.0921734406163,-20.843472560491442,-9.78151669832008,2.1442059939643467,12.200620005111725,15.95347903721523,8.613231178140609,-6.742439431581861,-17.647510267009554,-15.030768861381404,-4.664765135483115,0.7269353291481266,-1.170923751426431,-1.020164429144551,6.0122514745396805
66,34.59811860799059,2.4966827130257165,-18.26402594740233,-23.839937538966552,-18.273906745396474,-8.373135515757458,2.0671811882038105,11.453840096763427,15.43944690139948,8.621818623563255,-6.3347521443838355,-16.978447050866283,-14.233176031930013,-3.974061200021894,1.0936747505780093,-1.1393796629221853,-1.1597104160153195,5.848390838622486
67,37.23324598195237,-2.650854042949888,-23.388902731144455,-23.09559313579112,-13.984785928166147,-6.312760253848724,0.5495046410025387,9.845345713233494,16.175531573130947,10.106527297009379,-6.540586864356918,-18.602218646950114,-15.287140848446036,-3.8279977776524623,1.2748378564895442,-1.7439987623479936,-1.9026610907116492,5.841776655973093
68,37.46760449201984,1.188734071122279,-20.497577477696105,-24.446537317884378,-17.690274780898772,-8.08482566885928,2.130935593833888,12.35580784623584,16.978030095948345,9.233070113046367,-7.3861724727855815,-18.522328757205695,-14.7585505728136,-3.4711808347439317,1.462827232300749,-1.5387060997339734,-1.7758510474020666,5.771376890993571
69,33.878674847115214,-0.04137128908026874,-19.749830539419477,-22.64959066747423,-16.13686774312718,-7.467848076801582,2.272127166378996,12.823702772781218,17.722888306501673,9.432602811433306,-8.083899519997132,-19.362587195322998,-14.75727882038747,-2.609654074284839,2.3055388781353003,-1.3204543489870617,-1.8048152965491693,6.234870852621967
70,31.79411381591163,-2.101085751820232,-20.03746863278228,-20.44289443531791,-13.272875593606901,-6.292327808217319,1.5925006670577773,11.99224893997973,17.83796372249555,9.916838724518431,-8.12725454013478,-19.771864367706993,-14.770263850815352,-2.082636682334152,2.7821817682644734,-1.286321632715822,-1.8916827031006758,6.5313995306761
71,32.053818856727695,-6.239851984793072,-23.517118996266216,-19.457587378947515,-9.450627672673585,-3.7392882757491006,1.5387313036111472,11.33044381419961,18.24449824841345,10.678938819053544,-8.308892946571198,-20.615122161744956,-15.012915540216632,-1.3837174994905774,3.6037049461147364,-0.9000866078757629,-1.4710486113267578,7.64330261472698
72,34.33164204130544,-9.583485011579302,-27.597753445881178,-20.229407794474373,-7.62706922037269,-2.5491553304795502,0.8885694879859946,10.435331959971263,18.468689150249183,11.20329637179905,-8.95123956418861,-22.3060969157966,-16.29610601539923,-1.4017658531926227,4.3182308953086075,-0.3760562731170615,-1.4956161941805597,7.036633492956597
73,37.21102868936901,-5.770632763147805,-26.534853232209148,-23.795076904598215,-12.684835551473958,-4.8278624677735165,1.5093746998714666,10.635116524296354,16.6265803852912,9.372385300394422,-8.588210185072484,-20.83833460669201,-16.490365099356726,-3.797115353959374,1.952476902532575,-0.994323455775609,-1.3991791132386455,5.86795770995025
74,38.56425946165132,-11.788376729793725,-31.39103399968501,-21.596663646426588,-7.016936411409814,-2.69817146359524,-0.949167367476438,8.46504022860356,17.88426255523686,11.770342714332712,-8.45110460736006,-22.693409414705222,-17.66438273772936,-3.4075675389675286,2.251819894162048,-2.053932191750748,-2.978726554613806,5.058188494762312
75,36.80019813987872,-10.397415842390382,-29.7700569609616,-22.048028630376155,-8.847527895189824,-3.732724218186851,-0.44005353689045923,9.285154092881617,17.678773038251233,10.557169277044267,-9.76373944739053,-23.467880057633796,-17.87616389366431,-3.2787307641512258,2.4804300256099983,-2.0384686475598537,-3.503103453560192,3.8624533352314634
76,37.78515443134352,-11.192678620515876,-31.362127447576317,-23.53795058123358,-9.960358389021213,-4.502445413168935,-0.8930956655661664,8.967845669131492,17.088874450920827,9.463415533611848,-11.118021077312582,-24.688283907487605,-18.859776030125968,-4.1290208124670285,1.7339267639168694,-2.8164297584684617,-4.894951680307925,1.1358894145090468
77,40.2614740299553,-16.207169118426098,-36.39814274001147,-22.997192648345013,-5.949144208868947,-2.25476096450364,-1.5058953948849716,8.50630556812999,18.3071929322425,10.283328956912408,-12.633417883237696,-27.170713118484525,-19.6549064968565,-2.9809468227824953,2.690466289009124,-3.442010115888724,-6.196490137768092,0.5524583154834098
78,39.154240332834036,-12.888017158945487,-33.923712014102385,-25.113658988374926,-10.479403184568948,-4.513442321694025,-0.2500285880377179,10.410663174902686,18.279037303839818,8.900154475152764,-13.433859660085236,-26.97619826164828,-19.542996872962853,-3.5043042828324693,2.1720984305510904,-3.371311190522935,-5.895560560631996,0.5086387816474032
79,40.03061798409758,-13.446230449854996,-34.5931103804519,-24.877491026635,-9.67914748955993,-3.971466048175242,0.05171352577716132,11.130549159946526,19.45052108371702,9.6593931579224,-13.634190734560287,-27.478285775246892,-19.31389904568597,-2.552141748041231,2.8497357118110656,-3.44192219907049,-5.8100124138416716,1.9695998495800442
80,40.5098467369741,-19.447927893139408,-38.836759184007036,-21.710044706571367,-2.892346907688089,-1.0401069971125843,-2.573876916661698,7.650900287880334,19.068519895014237,11.412150744514102,-12.492336740001374,-27.348363796146494,-18.898396153087223,-1.8070533407471279,2.581023134961939,-4.955025908183241,-6.716510692367064,3.5525590489277854
81,39.55886793858811,-18.646991739546586,-37.324504357068584,-20.41844923057226,-1.9499376928246948,-0.2811799691949286,-2.1944164663958663,7.412031879485407,18.662341263632275,11.781814693569205,-11.019072728639033,-25.56911505136533,-17.8156791901862,-1.4184389391916907,3.1771760885028986,-3.609213260981953,-5.127250273778222,4.611312039757901
82,40.32185036376142,-13.4305414504034,-33.70912022126929,-22.398042802208405,-6.573245889303493,-2.320569491080356,-0.9207554005739436,8.680299414549536,18.202466345789066,11.456955635896698,-9.508138724102334,-23.639036677629527,-17.79297452453542,-2.97381599382096,2.5703955415757385,-2.1175736141590753,-3.2867389208759406,4.58169281890347
83,40.358114238183376,-13.31303938437728,-33.8193260175383,-22.98264207268143,-7.500047717640161,-3.1744019103295242,-1.3880841963114443,8.561627611958409,18.137742804923118,11.169156174704115,-10.087645570752779,-24.375774847825845,-18.50326842182312,-3.592554610043356,1.9563543982681733,-2.8405920135482865,-4.1379772841485964,3.6423610132813873
84,41.5078516494824,-17.311034489854407,-37.044503921618684,-21.527964728100848,-4.019976483679057,-2.2417967509144443,-3.0902195388080913,7.844918628273581,19.975364081011993,13.080098128126432,-10.71843284785428,-26.7892243567141,-20.09525772193328,-3.46903657805399,2.415131132424814,-3.345508145325446,-5.374412757553747,2.3694647168132805
85,40.31717685837957,-18.221562924953197,-38.111978551624645,-23.01690962563149,-5.459354626182583,-2.676338731838305,-2.1232359261473874,9.323584979595223,20.392294998737963,11.647937123863933,-13.244883185079589,-28.887429628744236,-20.86930806329158,-3.215807293121857,2.7805039737207835,-3.570722765033492,-6.410860071610109,0.5270030604978145
86,41.695440616823085,-22.711808901963256,-42.10658608474817,-22.18817358704338,-2.3102576317252894,-1.7484443988846066,-3.561674831142898,8.783176828343205,21.812715302624582,12.536114497636923,-14.770992041399179,-31.345287874054133,-21.86630635778931,-2.8527054355398453,2.4538184007049364,-5.483510010076024,-8.571168227845975,-0.3165182659129281
87,38.54279178332203,-22.460039095028293,-40.73829319853559,-21.53668111250712,-2.288690905142774,-1.6612652849314655,-3.7110492203482903,7.62387896248871,19.925777823671236,11.247404325073573,-14.653555501131502,-30.39586279639268,-21.17361676196497,-2.801411281806554,2.2783401148431635,-5.374932342906411,-7.935494991608083,0.9999589390688315
88,39.35350189870255,-19.540176060231822,-38.50729147883958,-21.759889876232066,-3.55993863393743,-1.8591179379246932,-3.0969043155594562,7.204779649026276,18.208345605268754,10.214269297749155,-13.46613439507861,-27.95067901030517,-19.591677290362565,-2.762995311596635,1.9092773834281949,-5.0712310407140855,-7.199363004416788,1.4388906549608038
89,38.8182363923151,-17.728083430604098,-36.729027519471074,-21.614576073679043,-4.172969280149462,-1.8297905542089523,-2.7561470544164077,6.622186933183378,16.868605941548132,9.743700679412273,-12.219824364032837,-26.071513974404596,-18.598955485668586,-2.7501554471319145,2.018078527979139,-4.311113045546268,-6.46145925771579,1.2669138286878303
90,37.41041269347245,-17.53904023780021,-35.1361813012013,-19.26720455842332,-2.1628423086484405,-1.0533347371207697,-3.1966097459990013,5.9278182435569216,17.074541703965178,11.260043810624511,-10.088302077260883,-24.556383259808666,-18.35306981362289,-3.2087447700787908,2.0430073706437657,-3.281032686120784,-5.079568617697983,2.085820666075758
91,35.25880219485923,-11.10042204107224,-27.953540288064115,-17.759210013730204,-4.8705583168038125,-2.328777462662106,-0.7541278459090066,9.516680551102489,19.15704051440911,12.387662343417329,-8.167122697700574,-21.943295670511922,-16.50432195990012,-2.4279467884758086,2.9925943036037084,-1.3851172668356684,-3.0114557814979395,3.318758933588779
92,33.27839868056401,-12.964017494031706,-28.141992766692244,-15.892284704715847,-2.978410311665537,-2.333098050047974,-1.8532110723525599,9.644917480030848,21.042863361824338,14.055240639780898,-8.478030828010798,-23.56718067887875,-17.53085178686738,-2.290888399919351,3.1157448068920615,-2.210378613282508,-4.125901665753727,3.092191816011129
93,34.20959865707128,-19.27200786266319,-33.44888583961407,-14.451715773687786,1.7589962812744595,-1.0394345256050082,-4.843974505611842,7.259595443210496,22.12654844813762,15.88922329787858,-9.44089920071951,-26.65319593215829,-19.560027058994187,-2.497422053050822,2.4684103144640868,-4.561925633902928,-6.1014649571513155,4.2457466328906035
94,36.37617651571331,-20.548208308641843,-35.46906900705929,-14.890224737783843,2.6870756604789983,-0.3006579345546298,-4.78013507176164,7.453869049983406,22.742312914231707,15.95784209569238,-10.628516951036064,-28.16925899992317,-19.869256306303576,-1.5254374714876178,3.2497505339496198,-4.891155409713101,-6.599840895297184,5.045339750098988
95,38.128373205053535,-18.004579217311246,-34.944814497598784,-17.817088336343566,-1.331122178424222,-2.0988782366492114,-4.073569095105181,8.199732554044104,21.93758205952289,14.617017291230807,-10.941945002854377,-27.69508039076615,-20.05671759940376,-2.8280393540136775,1.916271282027903,-5.187174365153855,-5.979609398668719,5.979219930393761
96,36.98649516015474,-18.193579272201926,-34.79584915298926,-17.651064661178545,-0.93841371252397,-1.450152263248911,-3.737865523649901,7.700588015710544,20.91424330323899,13.963187612820107,-10.711452667318245,-26.8775673816239,-19.285223296683704,-2.445704702689524,1.998807496013022,-5.052196211198267,-5.3209136545087485,7.580057798206916
97,40.03474822175419,-19.599252832469404,-36.93402958507692,-17.543051487225828,0.8046522454815654,-0.3105112335357021,-3.708361105986972,7.998140460879211,22.24243068033984,15.32299122947723,-10.531471867835172,-27.676831268297498,-19.930457800307398,-2.3474545938786506,2.528023434362753,-4.484017370325997,-4.656496631833761,8.503067754750633
98,36.212316463584145,-18.609194665033804,-34.455426580462486,-16.669068887232914,-0.17337967519987763,-1.4393307638139925,-3.8610145058389507,8.47090820726827,22.60971345011926,15.452353355280323,-10.47777903096134,-27.810853939291928,-20.39783260562071,-2.8186550114349025,2.6088210267254888,-3.8323357869373686,-4.099610556898043,8.359336480609382
99,36.15106432664154,-15.886942113757241,-32.706539432688146,-18.520152915646477,-3.8740538931439246,-3.423915273086068,-3.1871098748188564,9.699161015894012,22.571409657434,14.619647002113666,-10.881022101689167,-27.86535121625314,-21.02151275810294,-4.002888476789819,1.8916484201944006,-3.7260467017231482,-4.350795473525194,6.332198272227116
100,36.433675680669744,-17.476923767874855,-34.55150337802149,-19.243352054101212,-3.5843188511907065,-3.0339859373808618,-3.144530752840905,9.543366669927913,22.23257185867791,13.801059684455973,-12.1784059439798,-29.048420558967347,-21.497358286209867,-3.8583598101268692,2.0203716013654107,-4.1223115123750285,-5.3395047110829434,4.825860081043457
101,39.76801855414703,-27.091238973856093,-43.5734421584778,-17.6685406130334,4.150890823096028,0.4051281457410498,-6.467534398905628,5.692127383957179,22.232609574745542,14.91053399912843,-13.940262215725044,-32.58562823512946,-22.986036673236228,-2.8123005146425504,2.3445208146801853,-6.4761569669442105,-8.42406212625149,3.667330257500051
102,40.125966711234824,-23.29606502934209,-42.427103097914525,-22.49290007005542,-2.4422888247208583,-2.062051729072105,-4.808716055537217,6.633817482914617,19.785200386649247,11.354646655599876,-15.443588589058727,-32.03769840286532,-22.52435626416925,-3.502056527575987,1.2334677205998217,-7.087218517688933,-8.363981286815859,4.355989384392736
103,39.19399578769414,-19.038130436832294,-38.50120882239394,-22.858186582107532,-5.020793213730157,-2.572918702300609,-2.811345483337997,7.916279853730391,18.74131315243122,10.286260302393872,-13.952130944415732,-28.91038245188682,-20.696664699329464,-3.6950160007505652,1.2646734966404822,-5.097121061843953,-5.591935968627421,5.842219007140617
104,42.02898000070233,-19.401306609938235,-39.517528254235955,-22.47811779575219,-3.5989327529605513,-1.724260912120756,-3.216319626064657,7.037802622670397,18.497279037561086,11.078017492482681,-12.573089546465798,-27.867968101076116,-20.723938260229513,-4.5854375752628345,0.6329765836187771,-4.617581381544578,-4.426694082769494,6.671975644245947
105,43.92402121084064,-17.104498626839828,-38.57232849001757,-23.883328615321,-5.961238596434221,-2.9420043778577947,-3.025144584887878,7.219386382994009,17.930479084168308,10.685584465038426,-11.903212571640632,-26.89969660305777,-20.863463264444924,-5.7223168541323295,0.14789920674890308,-3.5844736348106783,-3.1868870112527694,6.2413953295210876
106,40.713002497414486,-20.028559892090794,-39.55376374299576,-22.093188807032725,-3.1519606945601764,-1.8780255768514567,-4.5177359490049,4.937416396288179,16.899476905328257,11.058577435080636,-11.411051723171202,-27.094810791449145,-21.37785270008876,-6.036306334469762,-0.16004258181292408,-4.31485192566989,-4.225093289791426,5.301588712631457
107,41.100294677250496,-19.59152422399535,-38.977291708985796,-21.607298497798727,-3.1383317648927,-2.239236335140543,-4.596455073383011,5.592226550939993,17.932211485158202,11.706116293045566,-11.483735280277045,-27.57632294858348,-21.781235914657415,-6.127945940762457,-0.019078459709002873,-4.300830787121796,-4.94275899071442,3.2961598688480205
108,43.38292156570949,-16.232086049229704,-37.5051824096016,-24.1163737436765,-7.929666003208239,-5.504593506702331,-4.393832359775439,7.844425607862827,19.564504767801218,11.443379231162456,-13.055574137395682,-29.27743359745172,-22.94430834361149,-6.76859768563401,-0.5390082733387553,-5.204227548832751,-6.6429334143825525,0.5859589499217164
109,39.41699334267974,-15.819082705789327,-35.94041459917389,-24.06351498093988,-9.00227159217192,-5.888652830447182,-3.7236917103022527,8.301095221546293,18.994315732732485,10.467951320374423,-13.604947793305184,-29.534486782384153,-23.414508369542546,-7.221895442832551,-0.31256531968077667,-4.523980266373328,-6.970486126971525,-2.15491239352262
110,35.75211098890702,-17.762810869149302,-35.61425618742846,-21.782288635338674,-6.603716461824515,-5.306710759300951,-5.23022875095018,6.050115432255192,17.456231936479856,10.12960674335025,-13.131980509173832,-28.94509679266405,-23.287368514976365,-7.740840645875845,-1.210079476049304,-5.4325396195970725,-7.838980813274287,-3.170139571711011
111,34.63577466485333,-18.813639184408387,-35.73561624501334,-20.658049466412596,-5.309172697139783,-5.216625308678894,-6.435926289612646,4.735135817189079,17.059700341785508,10.589411528570253,-12.457571382447204,-28.39137156375042,-22.84614477949617,-7.575507299826731,-1.6619196755490357,-6.419790625803063,-8.613869098888435,-2.969188367192082
112,34.55505812490254,-17.71342425523736,-34.79996635956423,-20.651021460604035,-5.354978310143125,-4.357224415744265,-5.447031193481343,4.261836279217393,15.321338174046492,9.934960569168133,-10.44312482592063,-25.228824278998427,-21.42631843155005,-8.45814139315826,-2.497128836517366,-5.322617000484342,-6.702422972556811,-2.489476638825038
113,34.35117538118317,-17.481284904607524,-33.64264578992358,-18.545585546594975,-3.2399120478761128,-3.338302209733297,-5.706091030114844,3.530834884695994,15.058693283045528,10.531757971272274,-9.160036234809764,-23.703262352555452,-20.09573234484557,-7.496837360581999,-1.7062832254382152,-4.3552881520098365,-5.385246715648394,-0.8210644574357583
114,34.06839427257369,-13.909630367392662,-30.43481253597523,-18.401620217230235,-4.269571216048479,-2.6849363691441734,-3.8761591106751854,3.9884732002045205,13.889114653132673,10.311524606026873,-6.812222280287958,-20.382302633662462,-18.261491928914598,-7.248279036276575,-1.0934019242671964,-2.242682845331548,-2.7187349966695207,1.0427347551984927
115,35.039650550499346,-13.172465192286051,-29.927562273248178,-18.199096591538158,-4.372145017153344,-2.921011436622187,-4.067932046639369,3.8716046753953868,13.906023913495888,10.720597416608523,-5.900290116225752,-19.492866681935777,-18.24924706380576,-8.297274969093726,-2.3731115722635323,-2.8519538263213797,-2.66111444223951,1.229169635898371
116,34.55213769989655,-10.746375972633148,-28.52340013669712,-20.51607218649877,-8.589671300067035,-5.422297232362066,-3.8746742296200423,4.79311866583683,13.814561337765493,9.817323566177343,-6.819315314034896,-20.473553749098187,-19.588579841043888,-9.499968261470524,-2.660691863131036,-2.473943195297564,-3.019941395060275,-1.121824001771994
117,32.25147238242733,-13.77809643391814,-29.378274952583133,-17.893878557205635,-5.0855005302167955,-4.111232156283772,-4.428172046873523,4.877192187023029,15.194580754838766,10.59432864311912,-7.913731185231787,-22.093637335701672,-19.752203853919532,-8.324077617250845,-1.9889500807443963,-3.25685215421039,-4.162224354329217,-1.103420006942687
118,31.38538547465812,-11.786727310385313,-27.192992916775232,-17.68383557648753,-6.199102629584433,-4.304754724922371,-2.7741352652477542,7.079791448596995,16.24484121335798,10.298022948346102,-8.466563206789958,-22.06276562323396,-19.235167137900874,-7.70880185474578,-1.3096541074149408,-2.4206453713904943,-3.3544224078165024,-0.5640982661595498
119,29.256537757969795,-11.739843040157647,-25.670260686511092,-15.690876435878552,-4.506068735466676,-2.9995450827476637,-1.4781948109935077,8.474650421116287,17.295873174727447,10.637534021461164,-8.471405278880786,-21.61055545158782,-18.007265938873704,-6.2112756543239875,-0.24508995504002368,-1.8971713447376093,-2.7965395075876995,0.6732117359830392
120,28.35237043403561,-13.671924880626046,-26.24889733919459,-13.508956022609324,-1.1929170906135955,-1.2669783203245377,-1.9813750043889402,7.420764298220343,17.337089062012737,11.728964236767718,-7.366154968504537,-21.08812633449267,-17.890300206060054,-6.111807751544962,0.04066380077078738,-1.4002991236896176,-2.193070629447024,1.2016882464278489
121,26.93750128795135,-10.82745409659857,-24.022364475062425,-15.356347018835104,-5.273837664843657,-3.7601263613463667,-2.1882343632374446,7.180823813806979,15.812674976816062,10.350231252252406,-7.1610155381091385,-20.22417196825548,-18.291054288056333,-7.996334477609641,-1.736231080140485,-1.9284406279463038,-2.019320861964455,1.0782776219013943
122,27.07389755257637,-9.168311967446142,-22.909874985674634,-16.144795275317747,-7.0060099449881665,-4.7665548603207,-2.281423145553793,6.972215070674744,15.10651740248059,9.911261982953825,-6.761937009868892,-19.515947257047596,-18.099282332978444,-8.318858644432515,-1.8942758152931498,-1.5386825464637233,-1.3463679827657964,1.6768268187017437
123,26.036890168974796,-8.953684711045932,-22.205220497885477,-15.59748615568357,-6.683011071710771,-4.533465595441377,-2.246068656177585,6.6437794801769146,14.580430506513382,9.581389675230662,-6.707215272072297,-19.209070837960088,-17.73880131877501,-8.021880883620709,-1.774670414724824,-1.6921579635605066,-1.704846949505292,1.2917701934928685
124,24.33789488244666,-6.8137162753381935,-19.843288633709818,-15.962457411249755,-8.943327317349762,-5.762612497578587,-1.2150739879985548,8.448656533581284,15.318921944715509,9.139818920235452,-7.324465701848666,-19.540545352153135,-18.050214246827267,-8.275261914348516,-1.4419140212014663,-0.8182309846188945,-1.448360730997319,-0.2753277776523596
125,25.132349680085156,-7.550628226383887,-21.127145039669823,-16.847355097422707,-9.280256337999162,-5.976272081880621,-1.5573711999537687,8.184294226807967,15.353441452570811,9.245373871669054,-7.619136610563455,-20.33923190665331,-18.901954123235424,-8.667222891605281,-1.3591655887148864,-0.7748162433472007,-2.1165331667890435,-2.1450290660861477
126,22.54257459453763,-4.427364778399886,-17.749381194937545,-17.342914091424,-12.097240079696862,-7.1174493555103275,-0.0677441836313506,9.821211059304288,15.21488666309248,8.118459880305181,-8.202215815902994,-20.3525489129496,-19.17730066116001,-9.095770128277861,-0.987655675578472,0.5612135350379218,-0.971947538089833,-2.3263451476236674
127,22.915126023571723,-4.9636672497509675,-18.119043081933516,-16.721713015095997,-10.841614096424697,-6.169675308804368,0.23974684402935942,9.972304301308482,15.642469931413059,8.604097764933453,-8.093611937063072,-20.568658641428645,-19.232806540648895,-8.714987571139785,-0.368595915492698,1.1659426909146224,-0.28308132310171064,-1.2933941729030232
128,25.846884062766428,-11.435316644323738,-24.50430985585391,-15.637560955623178,-4.855984113923387,-2.634815288321639,-1.1454055294732888,7.43833370100989,15.367230649738167,9.569342335834763,-8.283445048982568,-21.67822331142457,-19.373300506147764,-7.742716764187394,-0.04223134824111069,0.24029083812789495,-0.4983667477308058,1.414503598143156
129,26.672785218750413,-11.105740078029577,-25.01747362649464,-16.750734532034695,-5.520153824937013,-2.2126110364993203,-0.3766504102960862,7.283689459798631,14.141078937742423,8.469192682503396,-8.215894587295972,-20.758599515461285,-18.669555579665936,-7.640250641627279,0.08287595980166987,0.9975367429348373,0.6853416047684536,2.4858011039667276
130,25.248067671613306,-7.702211703429033,-21.67587436285782,-17.040204514865774,-7.942057121728834,-3.280242771094703,0.6267387814823417,8.29052799253388,13.905789611117102,8.113300977898266,-7.326540000696733,-19.072349261672453,-17.669079305147363,-7.886198890641605,-0.6170932103495846,0.9623088348718155,2.056909385057091,5.759631717834308
131,25.28663174962766,-8.669558163549022,-22.27807341401687,-16.148898035102658,-6.001410059876298,-1.8150983665010156,0.6526364917198902,7.353226930788988,13.216935183861386,8.33615558488335,-6.547577895182344,-18.504075189659712,-17.63187324239501,-7.994728617994734,-0.23179543331974606,2.119364276355252,3.743396999488943,7.6238213018150605
132,23.914509664873922,-4.206045430941401,-18.376377401753754,-17.412458304675173,-10.098632542916889,-3.6046218087502155,2.4173835364557745,9.660142578671914,13.687334901941336,7.761376014139842,-6.523620612406426,-17.904041061106884,-17.35447151272023,-7.918397917841918,0.5575429471680247,3.6752480495353246,4.898098235604222,7.345925893630986
133,26.344242292659388,-1.3066935316401709,-16.64130733857743,-18.03977590325294,-11.994677730444971,-4.224050232295334,4.363906457986793,12.842657546056536,15.750352020453988,7.871063334503665,-7.168827995039569,-17.824110960184857,-16.350064476253724,-6.779011009457317,1.228108516627876,3.83540795004308,4.611404536911693,6.5477030260183575
134,30.059224777295235,-6.8332875541738,-22.74267365968252,-18.225904818218233,-8.57464541902646,-2.9041742549948,2.730987948958381,11.901059362439476,17.05139624141661,8.654018902475908,-9.329934930179055,-21.30041546390305,-17.940058726790568,-6.079900490479127,1.8082959328704689,2.653744463127397,2.534301877970838,4.968207071861129
135,28.175578725488513,-4.895249249311116,-20.850098427752528,-18.991599015331616,-10.375631847483893,-2.925806105884037,4.242926091515202,12.247970826447826,15.211042712847624,6.763051395855059,-9.00511861740322,-19.31500947177378,-16.571428090115884,-6.1881011014775975,1.4915679795524117,3.282268530748476,3.512975230952233,5.117534673241316
136,28.274688825178615,-4.95239124207386,-21.699293910819677,-20.76882321862422,-12.201431379606586,-3.9088724143630516,3.931244568330203,11.735336754463342,14.09818596993837,5.464495219786257,-10.009244841106128,-20.091320720327,-17.45897579124419,-7.246007359156993,0.49652978680486815,2.4538655146101074,2.626293466540434,3.8839307136779864
137,26.696163689304957,-8.522011817645257,-23.29085107565535,-18.014573091993984,-7.595971756696856,-1.6036048308618784,2.9275659670439573,9.798884347051633,13.52910108647998,6.395323758487733,-8.656660757032773,-19.10702900856614,-17.051597326311672,-7.217294629384756,0.6744813026670725,3.121678176598953,3.2773059837850482,3.569838554451372
138,26.7623804939632,-5.4717174065114955,-20.73542388946818,-18.304227666869426,-9.215236993068473,-1.8267345532941173,4.21234722515584,10.447618711488296,12.589473612810488,5.434142528579339,-7.895851717593367,-17.01919267163111,-15.391636903937792,-6.7980251787984445,0.5880745126047526,3.422672206560035,3.9591166731676384,4.2607346627149445
139,26.278588394124277,-4.472790487834859,-19.7034474887824,-18.273269368486886,-9.729189600840416,-1.9239442137613068,4.65835157428379,10.869341401708704,12.717011735579236,5.48849761932803,-7.817911381957736,-17.1192078686167,-15.65510262974239,-6.791669700711939,1.1834618550711673,4.337476120548003,4.568798720628149,4.146637179201747
140,26.912394167407687,-7.401429897527228,-21.51734856331128,-16.127434976654285,-6.248423342743619,-1.097234709603053,2.9885986530451225,10.232274812077726,14.796236033363163,8.127466948448133,-7.24136232748278,-18.35656691220957,-16.618042205090465,-6.6310261658675556,1.4228662951834528,3.707325618503351,3.5173515509585114,3.504906367157895
141,27.46372744947728,-5.774946496808356,-21.188520825915308,-18.715157869327967,-10.285871331274695,-3.525794291160612,3.500775696976706,12.193870752379125,15.877881082496256,7.423835998023488,-9.045792061223594,-20.258180311380592,-18.08114466159976,-7.4441410581829235,1.2684236852036213,3.695550732905789,2.544732881471217,0.5939737179151943
142,27.69417369702876,-3.9719207621160635,-20.40044143238677,-20.59815436305242,-13.343951024802179,-5.19658074863523,3.6304832483045875,12.430480206985106,15.114882101234292,6.385572767284738,-9.400770400708103,-20.34112006884026,-18.91124950463809,-8.955151559700413,0.16623619079182525,3.3917181297545267,1.876592273931952,-1.8701590216149937
143,29.020548450817344,-6.026642113669295,-22.79781163430556,-20.97004415418958,-12.539880798957482,-5.54532131936522,1.59426492161946,10.361479770849412,14.342838678102284,6.317623127786246,-9.981650031857116,-21.408519163009263,-19.54446627917269,-9.08587947071499,-0.5108621331242549,1.6930154925793548,0.3036585941362613,-1.8510999085799678
144,29.027220398445095,-8.903673072872625,-24.952525363596635,-19.737769994764655,-9.419381087023233,-3.8979406567405275,0.8880019301027033,9.416658647177206,14.843562278209067,7.366701802678125,-9.965888064286842,-22.055944451107536,-19.204289288556087,-7.583574763724581,0.41152456498765766,1.0845226299932835,-0.17103109659382426,0.14354602640058484
145,29.262895704136525,-9.151152810222078,-24.996238634499917,-19.277323222324743,-9.021422323956369,-4.191729162104938,0.047971844399471865,8.667486087965868,14.506014127087345,7.283231368262495,-9.991939387058995,-22.079147923456937,-19.3588172579506,-8.106934054716362,-0.5006262088143428,0.1256453803945922,-0.73681180841353,0.21374730332507721
146,30.25785763435932,-9.991622584592987,-26.462080621960567,-20.34386586370862,-9.607435873951081,-4.521803447433833,0.11465822032373538,9.223403407712995,14.982224582848769,6.911032126859048,-11.165025750460412,-23.14229337886297,-19.605990885677432,-7.787884834893046,-0.35568228968153115,-0.21822702094260302,-1.257640218028685,-0.11358385696734342
147,29.29824670932586,-6.888860674340715,-24.038385695081026,-21.75756065111064,-12.677186136656506,-5.260675693882997,2.2376186030626455,11.376263062868219,15.223059138601162,6.183981610048291,-11.260532549010433,-22.665698710640136,-19.50639219533055,-7.98955105976373,0.20265043296799182,1.5467427068512052,0.9620650507623738,1.7451214248873312
148,30.646137107062362,-7.890999720324297,-25.196364678956645,-21.16502205767576,-10.694497700578795,-3.699104392998178,2.392253010408631,10.751889102097657,14.749080282964531,5.889983733265151,-11.708153997904732,-22.897666380790074,-18.798175942932993,-6.560605080508891,1.1353179943868348,1.3845338731044243,0.7474845596693749,2.9364563191742943
149,32.86604387699206,-10.23802988114778,-27.949427512852182,-20.905721358332237,-8.157919043126633,-1.8795480127473463,2.1597339175248433,9.663764735080731,14.286078724275985,6.201756748621553,-11.128439675237335,-22.18450059602979,-17.98277832540675,-6.15844081065016,0.6053111083434807,0.3502351554833223,0.5231583173049407,4.583613348195339
150,27.378431102852282,-8.117898325692025,-23.9934889366663,-19.67580157924093,-8.84944071301497,-1.469775156354621,3.974023612290777,10.523380510707224,13.017042493914255,4.4405291568472895,-11.276982133252782,-20.56830355133779,-15.911692007954127,-4.533238720383236,1.9098846739012387,1.8582262830805079,2.7736007713682524,8.179533868338826
151,28.73437003945705,-6.230637623201348,-23.112440067916413,-20.66437412983381,-10.492530843449366,-1.9167396667752439,4.912449200805165,11.337103387568172,12.632430316628806,3.560864823584949,-11.273715633222908,-19.45145756966674,-14.715410786644672,-4.114780517832144,1.7467483293979706,1.7109663478865456,2.727492135950122,7.959880908200599
152,29.643812657412273,-6.377073692503788,-23.473375730026156,-20.52575176469186,-9.94358225067159,-1.5969705126436093,4.537112239856324,10.374088424639877,11.613508601270238,3.0330967158345574,-11.114595079610314,-18.89426447807378,-14.305655272783934,-4.198489713384584,1.2616858855825646,1.1121941914204359,2.109794005719934,7.2032370688590035
153,27.900040055847246,-5.342156618144773,-22.36119438279903,-21.37917962778592,-12.13952932272723,-3.198795389848892,4.474100916998879,11.316485941240863,12.531784536719702,3.162607725720111,-11.997109873263245,-20.25940433564772,-15.198790017560688,-4.307502341314673,1.185331628499125,0.483890539777168,1.7938263963606775,8.69599092265671
154,26.03863306166879,-4.947035382406524,-20.43068456491971,-18.900833466447672,-9.994663190742513,-1.8495058590578635,5.261037238257413,12.355698903981882,14.462783713744345,5.652071315278908,-10.087342586136701,-19.717012187585087,-15.578370424713713,-4.354370148636611,2.323762570577437,2.622470569553258,4.158853162282883,10.738570288113266
155,27.41023629639366,-6.948464091826627,-21.370390584050377,-15.948102512359801,-5.512350746103842,0.14441962437114547,4.343064853108431,11.568769823066102,15.869706365308337,8.107376493495464,-8.619466497614614,-19.413727528510687,-15.24172829829263,-3.5574868303554052,2.854489766139271,2.55234902619754,4.392475652922134,12.337266396806015
156,28.647402044514138,-7.890557986824939,-23.057529484922718,-17.091271795920523,-6.023609066493706,-0.30451184354113336,3.7644350123561297,11.10857467330626,15.534500029767761,7.501587844434241,-9.675856146600347,-20.51816982921475,-15.917739051365135,-3.9122452812535857,2.2707721151252023,1.4684910834400458,3.111438885635552,11.253265275157041
157,28.52171421509464,-7.481214205873612,-22.442000529023368,-16.50840776675624,-5.468295396681999,0.13022444638040206,3.758715896982723,10.574435199597968,14.957806146682904,7.474267705683317,-9.204949387989117,-20.18635913639685,-16.05575799855284,-3.996839722555281,3.0123065735196786,2.9927463660831037,4.372978529218434,11.20885540105256
158,31.184853896322224,-6.556824354941033,-23.169627575291326,-18.225801064996414,-6.825115585104288,0.10080114286824637,4.620193500987018,11.031714533540564,14.428618642933126,6.685479255550577,-9.30193280726701,-19.631104838382658,-15.622996240209213,-4.004499422626097,3.0454343398929726,3.391896792630653,4.528319796294778,10.19567993181417
159,32.2526430180175,-5.520492119801678,-23.16037726928905,-19.70634590676692,-8.855833031296083,-1.2160883109564704,4.154412348748802,10.574152611759054,13.489729322112602,5.713144428274707,-9.714381708006522,-19.614047650507526,-15.819781409502587,-4.744884431184921,2.0434018927519384,2.571037505974834,4.046330460544794,10.012042671081264
160,30.205308580727507,-5.072070477582249,-22.043262339412053,-19.29705479151909,-8.836500430279209,-0.8356559911512973,4.53548301431871,9.993023349923767,11.972416008546807,4.454829722919653,-9.792588097544318,-18.83397776751533,-15.086292119685945,-4.442204493026948,2.1380947582578544,2.584804438568612,3.6823936106143655,8.93720869286805
161,28.66247121050791,-2.723922529412384,-19.90935940599271,-20.464118125368408,-11.992366227468649,-2.6535216968936663,5.114056044487298,11.20855650523278,12.17313584853157,3.894841887647623,-10.176664419642956,-19.03334950106289,-15.649216836967307,-5.260794136425824,1.7433093769516148,2.7107269863657883,3.4659768408860705,7.511431408755263
162,28.297342043010985,-4.67283469253041,-21.116756612533095,-19.53422554485712,-10.395911045355387,-2.552404559369217,3.9341387339009826,10.906814788952463,13.661543788018067,5.50906567172714,-10.344796093392748,-20.58551161815634,-16.685935532657272,-5.185743239096507,1.5327963613611413,1.1007434305874466,1.3745632198373223,6.5202620080696585
163,25.775916985003153,-6.258390500392339,-21.291173612343563,-18.452277904577638,-9.393345089295838,-2.834322809512463,2.8083201724925204,10.475491150957556,14.48747007909856,6.373418032395565,-10.837846294380716,-22.17795099135703,-17.883908364901774,-5.242875155549804,1.854890726450283,0.899594508608038,0.9596891320928828,6.8024849371902665
164,27.322836745994916,-7.020532502053797,-22.589555914637927,-19.070276694672717,-9.77521515096073,-3.6553274093704604,2.019914188113759,10.503438698453603,14.946718551524487,6.105069619165741,-12.07355022240431,-23.332917522077917,-18.12324987216792,-5.10715584470221,1.1839917321903841,-0.9318319344322177,-1.294339650011814,4.8972380002058555
165,28.506480015480978,-8.320117271441454,-23.938029924183656,-18.733567623425273,-8.545607067848016,-3.2124759814197397,1.4422536978455403,9.94662170265989,14.910267869500476,6.027243217099822,-12.595798662041126,-23.784555863367906,-17.89345782887023,-4.473589836082966,1.3675708872825827,-1.615647063024231,-2.556041234191079,3.4086539483034444
166,27.767777708576002,-8.642918457251385,-24.212754143951607,-18.920508759401912,-8.187115404517826,-2.4096599322423637,1.7282658962020792,9.064959978424843,13.542224078937407,5.4459444658317,-12.064846197583114,-22.977560745180263,-17.550751128653832,-4.3754025663619265,1.8137092473155105,-0.8820909407458913,-2.3574998336671467,2.2794866260207236
167,26.757713742498986,3.6260733499327444,-14.887927939488769,-23.73756685388733,-20.132234507154152,-7.636050894957204,5.914228769822102,13.798303616594175,12.57732461765769,2.315382765592383,-11.621402543085047,-19.603817025989187,-15.946731039632107,-5.762485410736232,0.835911206037712,1.0724478544184444,1.0266564864667829,4.716204034409225
168,29.102351011446668,20.69501625916063,-2.901231672203501,-30.477438813607343,-36.43893627799527,-15.509002593413099,10.453772081021611,19.66479865510483,11.572820311777246,-1.273153415040634,-10.525882037139523,-14.907232878681768,-14.055958404898869,-8.096716245895767,-0.6925457926340147,3.495440142333343,3.7296214953970814,2.537957120166363
169,27.74602934086941,41.88931095703137,13.093719291990588,-39.01495759680915,-57.77028077311898,-25.92835071112099,15.960670053926565,26.379262865874644,8.901813344614881,-7.489767320739676,-10.521955833975039,-9.484300334896487,-11.039654498233238,-10.034441357457318,-2.771708257712842,4.875386966826999,6.054705894394585,2.0519123807067006
170,28.253353336143146,55.95776661240213,23.172267531503277,-45.25885889205891,-72.76089672640688,-33.869384017151084,19.262376664204055,31.819344921648394,8.865157034274457,-10.415397967371302,-10.484064219753556,-6.659373395596154,-10.104745537527752,-12.53692903993401,-5.419706487422964,4.8641353751266845,7.47912211370587,2.646998108094762
171,28.00177651082644,61.9252710703015,27.418007881510334,-48.374548050070985,-79.84230928564452,-37.61196769841598,21.062991631219873,35.17272425687669,9.961943596712278,-11.147768907556515,-10.939152096552377,-6.700430290805622,-10.93441029813548,-13.962859643396976,-5.830805703840236,5.942828923842461,8.326059472263834,1.364459923257596
172,28.80167083221607,50.09644007201817,18.547659002831885,-43.66403033431265,-68.56246678381324,-33.050665854077906,16.828951531017744,31.097363225514687,11.71001920455892,-7.812759982628492,-11.829446603637958,-10.53872360588212,-12.48620929665608,-12.287286298380435,-5.008491898529728,3.5016318392227803,5.4790586866520785,1.991192344129657
173,27.740830165843125,23.291511121984712,-0.5622274251019423,-31.92383532202559,-40.99352496381384,-19.70225040175644,8.989940256980091,20.37504160145445,12.346394073983602,-1.8649925505226645,-12.262002615749294,-16.52041237132546,-14.686374855946244,-8.37388980598514,-2.1172166618403105,0.6522500196997043,1.5294043352117364,3.552030400119787
174,27.710199008280025,2.2271550690847386,-15.06700378387192,-20.932986367368596,-17.18383588400211,-7.972301290157054,3.066470926064557,12.12497054098379,13.612267410982382,3.9805662592808035,-11.40476080693205,-20.06206381005632,-15.32325755086476,-4.567920189539558,0.29578455516209984,-1.7318125289725166,-1.283620715733884,6.068607526881138
175,28.02250418457753,-13.986293763480855,-26.39476180046835,-12.72507879015928,0.789079281985345,0.7042380127693663,-1.6410380897059977,5.891964809060924,14.857411707027147,8.830026385338277,-10.354314343753071,-22.59661874072964,-16.147075482520624,-2.3703953191865934,1.7053585718620867,-3.253657213190943,-2.748086417858353,8.38596376696439
176,25.934158309481727,-23.494540132296446,-32.36655218342785,-7.808007374021862,11.12383977774301,6.017379620575908,-3.910210432506069,2.202960782083992,14.868032417664718,10.961673302069569,-9.928247594322427,-24.021010720606736,-16.709945786234226,-1.0510242876037619,3.1988263244497026,-3.040623034062644,-3.1656630934522965,8.48546423790129
177,25.24201363833498,-20.035500646412363,-30.253547630886626,-10.510171532665138,6.463707227591166,4.0896214123365295,-2.800456320076842,2.876499910364508,13.27286703858269,8.96253509809116,-10.110452743492766,-22.852280178477113,-16.08741298717724,-1.500537102111823,2.7419362619929193,-2.797867867264631,-2.7964264681070725,8.205874962389924
178,25.159279355998237,-15.495353671956211,-27.31723610441722,-13.295036980833915,1.0067999169797195,1.4661488328102936,-1.7215552152871618,4.007061997245454,12.050645507949959,6.891352872999312,-10.801721232978288,-22.48911243102066,-16.399610448405568,-2.7044346699953064,2.0673213334574574,-2.2506536718832337,-2.1521570657909552,7.5898203344416375
179,25.17762843339082,-15.336868869561968,-26.863771881287544,-12.421134703980092,2.2464752122975065,2.798334664122516,-0.7098097161363397,4.373541430406557,11.836351673241195,6.604744587214186,-10.610047265069095,-21.722764928775696,-15.401220313386874,-1.7523181252300908,3.0346086192260393,-1.192502225225454,-1.2757752939407363,7.896967318918396
180,24.874969788068416,-11.137376637528634,-24.121937216838273,-15.128458529188665,-3.0886250511301774,0.059363265565151424,0.07910418497079659,5.418179907330042,11.023679505510394,5.3477918011848224,-10.461792337850314,-20.844236700633914,-15.614525964101754,-3.1181694697692537,2.162873985899867,-0.7686627074168435,-0.7478620227491676,7.0325940424775935
181,23.64049010379767,-6.744426499131944,-20.201008405677257,-16.068452913505315,-6.6891508978182195,-1.4185132670195926,1.7243379653987492,7.285115509827771,11.17674061210688,5.031971242547942,-9.588597655610434,-19.369636652150596,-15.095780857637607,-3.48038721580823,2.477532644729155,0.9025254100316951,1.124132471815234,7.749346299235146
182,26.798545636364302,-6.3963816743102475,-21.47684197675188,-17.76001913309426,-8.306634022566952,-2.8219076834587646,0.9331769687556493,7.524226184293923,12.131626320960542,5.656515180175546,-10.045221623245439,-20.58244649568553,-16.197721646572997,-4.1878635537357844,1.703662107679743,-0.17191867680223416,0.3689143305689075,8.108204598122233
183,26.097862006213656,-11.531010338843046,-25.14649376720635,-16.009553316596456,-3.848820030039078,-0.5788711208572982,0.3385248051876601,7.316509432603895,13.856593084514767,7.154759597837654,-10.935874323917261,-22.789063166732355,-17.145334488996518,-3.3291441305251106,2.649190263236242,-0.3753408404209772,-0.2288539763070208,8.364986070158
184,25.179928999853534,-7.919780907997755,-21.640360413100474,-16.25557322511086,-6.472119148449278,-1.6340061978990927,2.159826098890872,9.526133884271411,13.886561013708738,5.5170012970401805,-11.876341690864484,-22.027518807952166,-15.816169555337538,-2.707083459352509,2.612739108623191,-0.508911043978644,-0.6086564666381582,7.2392340245098765
185,27.612422115178703,-6.977166835322057,-22.244865321807612,-18.443788050116677,-9.54977946371449,-4.102628856583939,1.3329100130499179,9.748230149261131,13.734470888757867,4.607144742689308,-12.641340377300507,-22.177189559187788,-16.243952546511046,-4.3147975682811275,0.31635171529469946,-2.4905195818968595,-2.451300193434048,4.520176168109088
186,27.73646232387134,-12.048054195080326,-26.511849969929045,-17.441619045132995,-5.475907693245866,-2.2921851447571213,-0.902960155347565,6.3800080589821,12.232250800902724,4.721286348128228,-12.73095152184967,-22.847215400434667,-16.518057852412845,-4.050888480908124,-0.03934675464745107,-4.106249162129462,-4.372659706694744,3.5048748234887372
187,27.361132098844788,-7.903654501511278,-23.204838032041007,-18.75668315968519,-9.26547968700677,-4.221023412740357,-0.2426610938947923,6.923244836410409,11.271278812225487,4.008931495216423,-11.54366911679783,-21.005823433580446,-16.34820225003813,-5.572184183957164,-1.0725352130566346,-3.5334812351418194,-3.7977449341399367,1.9163124846568589
188,23.62725695200928,-7.296012397271943,-20.662203530127353,-16.646971378994312,-8.28901984631954,-3.954954356966671,-0.342965259382508,6.614312123524071,11.242597695933673,4.8406768722469575,-9.995836647909817,-19.63510091920809,-15.802019632123809,-5.562859050464714,-0.8577987205822526,-2.792548787118897,-2.7672496158134066,2.991049310377251
189,21.839727734545605,-3.0821802254470687,-15.737889344031002,-15.29143526334195,-9.500101239861015,-4.238859535623914,1.2554066544278615,8.194449354136859,11.76211790584829,5.693052683848276,-7.5777887471867675,-16.851497843894666,-14.615067718602102,-5.718767258567582,-0.1924777504306131,-0.47682399994954405,-0.8417622211102399,2.0208954698840325
190,20.36924805423379,-5.586095293377666,-16.320119478185397,-12.471143646360545,-5.715625673557626,-2.6841076055503725,0.6910003322840595,8.189604561030082,13.556953353454608,7.678128574431412,-7.177966748941466,-17.53154409762689,-14.675370220201136,-4.786758945807702,0.5457309841183037,-0.6270115062163277,-0.9037185936205051,3.4111821395874884
191,20.012107393248254,-6.215062727504485,-17.268417043522547,-13.501530755550114,-6.333152310583663,-2.6724199104859423,0.9655496472532956,8.177626898344121,13.074331994290533,6.89389254418482,-8.117034943909735,-18.560390060110127,-15.519573575190076,-4.938631472350641,1.3461861612944062,0.7041279109264019,0.04653802957345076,3.2624570048515547
192,21.187107858819743,-7.9383916485013275,-19.330539750057042,-13.804639593993118,-5.262836092458782,-1.8175646327135466,1.0985171750636369,8.287582732911064,13.439254271973256,6.803280814265629,-9.098180601225263,-19.64838087578197,-15.648273718938995,-4.219646213396423,1.7677766394678636,0.17919278004395778,-0.8084682744973152,2.98117187143683
193,24.02127837390277,-10.406200654575331,-23.014932434001246,-15.372116782550101,-5.175188833242155,-2.0068154109810155,0.616232304032746,8.785287424445624,14.529701669763305,6.342095372029146,-11.88334533286954,-22.656208318276633,-16.530543565694593,-3.4839664890268627,1.6019571660031884,-1.7521734163751452,-2.213237893964918,4.877247370925702
194,25.105076189546715,-12.860583523315704,-25.844539958115657,-15.898526700978405,-3.9056588719616907,-1.1721506311908334,0.13253557002121952,7.888230319356527,13.803437588905949,5.083233831709464,-14.051914093339626,-24.452365460384698,-16.468131850117054,-2.1801751774169693,1.8929053202012875,-3.3413689130921376,-3.673818113655423,6.1292091431129565
195,23.151293245239614,-14.286303768088999,-25.975903885874096,-14.29085651372672,-1.4495410578669188,0.48604962420224385,0.15456358720327135,6.8975941015164866,12.94888039380596,4.859816039958042,-13.812170467005874,-23.837993046205813,-15.364237903775905,-0.8673508924270584,2.6915927231884176,-3.251234997361833,-3.3210228773718766,7.9735894550694715
196,22.592266336595465,-11.030110387562718,-23.404573788387918,-15.454272199557318,-4.419566348611849,-0.7092531327483969,1.1800985390861383,7.782172229546033,12.464875667423529,4.3183914805186605,-13.083575165319216,-22.544427722050578,-14.971022028953618,-1.4238228936027648,2.40269335073437,-2.647807059767631,-2.537893153609869,8.045071470492267
197,22.164450766250866,-8.925835269503391,-20.37441493702923,-13.31013187668195,-3.89764869174474,-1.3882183464882338,0.19634974400588967,7.36762875753032,13.274020772563063,6.460739326479338,-10.347567269013455,-20.449102974460498,-14.276501512509071,-1.8183164756498245,1.8293396352850744,-2.8786995880304547,-2.6661130197799316,7.569111128551858
198,21.660670432015756,-7.099759288408542,-18.149879541127838,-12.34442519743922,-4.186686299957257,-2.0608794732863283,-0.36196046642779794,7.07437411296813,13.576930955361366,7.571904349362319,-8.913827102569245,-19.5020028473554,-14.049622371101673,-1.9083522817537277,1.7264420576205008,-3.0819017452749025,-3.029404850442285,7.2032384289583575
199,23.85645679528093,-6.375949284076996,-18.803097041863644,-13.641246531680657,-4.939077844058596,-1.7251055486989146,0.4800624290390585,7.569009195008566,13.532647727972051,7.318059196123203,-9.130488438954087,-19.575077173522665,-13.807333974436485,-1.3235078762617087,2.3201821581412023,-2.717008382494468,-2.4858711161127927,8.594146724797927
200,23.12632089996062,-8.35263249512061,-20.559542489659478,-13.769375728213177,-3.4697832788848406,0.11126211611398865,1.5352611915896375,7.543825033095275,12.73349755450037,6.178958378876679,-10.153571936201073,-20.014531878718643,-13.454730805739175,-0.45952149728352104,3.1962959210521626,-1.974499050351493,-1.4773856844713036,10.359495378098284
201,24.755166944428755,-12.04457454852262,-24.901188814850087,-14.972643916708156,-2.3103277604787538,0.7286698340646446,0.7852493975246787,6.8215356000097636,12.628472567597763,5.446746872039699,-12.36144809674474,-22.545044373030148,-14.703923893862223,-0.6108953276537454,2.582278789405635,-3.6340612999633195,-2.859918882109672,10.815431032717779
202,25.29642336383327,-15.294397308877652,-28.488733415339375,-16.179228131501002,-1.8926757758094,0.4631594184120026,-0.7630754919009012,5.2371883005408995,11.755741443113369,4.576800296865264,-13.910200002572243,-24.22254883454275,-15.649269934837537,-1.0715211883101348,1.5627080199351753,-5.516264046533195,-4.6456840745876615,10.169986275403826
203,19.658464381598925,-12.629242234057838,-24.625267666889076,-16.84771284582025,-5.728094549271286,-1.6936914979890647,0.07698630118162662,5.893285246274177,9.744993688594803,1.4865685742091816,-15.116510384342776,-23.33810716779507,-14.967819362873145,-1.8635196821948556,0.4277058574583575,-5.722086085549653,-4.479507189288449,9.520615685450336
204,19.317509246131085,-11.320412862119648,-22.919436454755065,-16.02764304577714,-5.952563409836552,-2.148518528835756,0.12460107109377724,6.461348928523598,10.4404314289579,2.0414473259886217,-14.771848573160575,-23.233859058027075,-14.976427960812083,-1.5237352628633767,1.5269555325589723,-4.275270236077493,-4.041366442067509,7.676588877961144
205,20.864143237208282,-9.346027992483178,-21.311845156957748,-15.471905978694794,-6.422460630087124,-3.125463767911014,-0.6933772313068124,6.519225333437309,11.774611500197826,4.131983303341832,-13.160722292196732,-22.831751661080023,-15.271722118708302,-1.58289596106824,1.8613189695538999,-4.091478256828873,-4.327077455501029,7.033158837564554
206,21.359813878702127,-9.15814132974526,-21.09207706405765,-15.157799475103971,-6.466083313948728,-3.759416012760921,-1.2333294673277944,7.160289176921565,13.804504835599761,6.436553544947819,-11.979471778268598,-23.132147834308498,-16.246784116103555,-2.264097951438854,1.8150601682923904,-3.5848975250802066,-3.205755100165067,9.001115546554871
207,24.141777558283707,-11.981627703638106,-23.328664013012215,-12.485483373567154,-1.5623821985564474,-1.8753003881220602,-2.9628599541104617,6.023672602497197,16.029294657260024,9.92552164294256,-10.629129664230941,-23.947878301014576,-16.596334298545298,-1.0732511332818477,2.861225706601178,-3.953414907297952,-3.462170703880303,11.165107250073623
208,25.500186369245895,-10.716988043129561,-23.07754650517365,-13.477340311832368,-2.5961376008238664,-1.7351569691847386,-1.9574796569611457,6.586439289452248,15.597048967691208,9.254309596713762,-10.639330756000911,-23.347152977238373,-16.084119900019704,-1.0273495781901558,2.6901182086757234,-3.9458186470302543,-3.1461008687937104,11.759461105546931
209,22.17379301297945,-7.838547812299514,-19.706266423473178,-13.942852567072755,-5.309054822556297,-2.731405096425229,-0.7278459823799033,7.064576518812959,13.711696190960604,7.027213341951016,-10.694777532543958,-21.69631613198673,-15.131015039539733,-1.6436658028839617,1.9248827378156756,-3.741313210438084,-2.955456420629371,10.366776450378216
210,20.05998005411211,-10.80809792331599,-21.077406747193095,-12.31557033132973,-2.4101346924546054,-1.382246710677168,-1.7401369193596985,5.156929448724073,12.520217130950844,6.90017472435698,-10.254162634619826,-21.226971655064,-15.013343526480382,-2.046852043659182,1.168622573000166,-4.629278073183893,-4.217532349678502,8.164461076901267
211,19.134863306195285,-12.765765429970557,-22.234492050711758,-11.686554800566686,-1.184631027292919,-1.1541734804161796,-2.4277283183741947,4.852148439248083,13.192692105678482,7.835001243429346,-10.004686700899187,-21.88366848334052,-16.128005223659734,-2.9346582067038,1.0419599757200144,-4.136673740235141,-4.176965932580882,6.5224894352974925
212,18.768514627282155,-9.809658720973909,-20.5320746265607,-14.146851935090856,-5.357351243469998,-2.7943474202382954,-0.8518557421256245,6.691463776716944,12.94632644357661,6.11526006239484,-11.374597901906657,-22.2439830680449,-16.001372167360902,-2.787025011411729,1.179446609595583,-4.0151130718686385,-4.138857570698206,6.575021414998627
213,19.455694178479042,-8.34138491689362,-19.46042537360763,-14.15266257257225,-5.809140848346676,-2.6241826016955545,0.29833886880425803,8.33592741830035,14.273909598286712,6.473761863540415,-11.99552299717166,-22.93874985286711,-15.643871070310285,-1.353209033187082,2.4872509849064777,-3.5485310642120584,-3.386188511900222,9.411968067517062
214,21.477164039836808,-6.910849815446463,-19.576044014526843,-15.940613475433702,-7.8387998264011625,-3.422971476466034,0.7103470812489245,8.908027376788342,14.349101756530256,6.1741989617831585,-12.383726183325251,-23.276090356634125,-15.773381065765339,-1.1946992224540474,2.7224811821996506,-3.3840138021493225,-2.8489333028162034,11.025090880406246
215,23.62472717273252,-8.305819167614157,-21.67002016673794,-16.383158885272042,-6.892031848097842,-2.7506540714698957,0.41220302355075344,8.416924836568164,14.550385389715759,6.950808681676895,-11.908782538331268,-23.80814857541476,-17.13956962215739,-2.2977230710449,3.068101835114444,-1.6392801280223976,-1.4140779049502936,10.209666893912916
216,22.89707076996222,-8.953898622081617,-21.071994105877227,-14.240769321814295,-4.592840963050949,-1.7854953029835887,0.05429112128055365,7.831322879989183,14.558960532253886,7.678870444804831,-10.675819206973266,-22.5215725636338,-16.406996032522255,-2.267137715661363,3.034728905514225,-1.1800799755137172,-0.9659686831454498,9.649250253720338
217,23.234086495049635,-6.004462093459627,-19.193338717922327,-16.149062540306097,-8.699453050386028,-4.357575416864519,0.37928643992770855,9.010060450592626,14.32183363431257,6.265722680170061,-11.508509853504874,-22.150950863260302,-15.895554490669076,-2.6133195060158534,2.060509095934687,-2.1702691738366897,-2.1159853358504273,7.797185537231782
218,23.383204293512193,-4.225742468589722,-18.135901330866258,-17.065902796747153,-10.066606971118127,-4.289779581815294,1.3981876173314705,9.024055887267615,12.820365218650783,4.855544886742262,-11.2919269433989,-20.600332047993568,-14.396005874575305,-1.957060726131064,2.1212499034637706,-2.1409266546931502,-1.7744735959607862,8.64465744806477
219,21.821621651273233,-5.520575116442828,-18.723132853855606,-16.36926775376562,-8.296708953071754,-2.825240959236911,1.1334147070061755,7.145625927576229,10.945440438765255,4.332846074992522,-10.625617488003881,-19.713020048190774,-13.743912145920616,-1.3784931248798844,2.6908251855695906,-1.6700350361509466,-1.119138848772692,10.012083811598128
220,20.988820960569846,-5.088145330650792,-17.83356752823343,-15.870293228257752,-8.414535030192678,-3.191694030820767,0.9426659437325351,7.195440033908895,10.998167401705333,4.186984448830367,-10.907382378441707,-19.883550792473443,-13.654040355099399,-1.1760744304282176,2.6688698904698525,-2.1154905605527947,-1.8722044526364832,9.18040842916026
221,19.425597722707458,-1.1077571905498103,-14.301312072877046,-17.328331905617986,-13.048427823774874,-6.216000539300011,1.1003942254348131,8.081172498380452,10.443204789865446,2.9802280148328504,-11.028926717073217,-19.0554335239733,-13.507912550886529,-2.5108440118188753,0.6588959100315281,-3.684668029123319,-2.627911941355547,9.241543493672562
222,18.622580094930388,-0.1143473154736411,-13.447105068452212,-17.931050418493747,-14.431399986112712,-7.025413997974826,1.2110667898312173,8.575384892622948,10.869077349966641,3.0969017641160166,-11.513926962381548,-20.069463258745788,-14.244150662146343,-2.2255061310138102,1.6231507852993787,-3.078440996431792,-2.8778637874787854,8.341214795194807
223,19.12629407446862,-0.4767747838569442,-13.188200020081497,-16.23743689430657,-12.321187977364234,-5.873474022878449,1.492873073638413,9.141408819796544,12.205638645479873,4.565830120845465,-10.496797772905968,-19.25255198463634,-13.22127296323886,-1.2835688003412433,1.880470714891189,-3.389438799650456,-2.7217277645272784,9.96549967683194
224,20.532229276574064,2.010316893194554,-11.878815444016885,-17.484242036172464,-14.834854102109965,-7.5142196630154645,1.2488072122392713,9.36176703726233,12.30499535219982,4.8315380734863345,-9.926055497368315,-18.896015093315647,-13.526295388116985,-2.0158279823875804,1.2718938262396269,-3.5532753371716455,-2.3150161489093626,11.102154349961939
225,22.67961165231744,2.4435863869681587,-12.742764168946191,-18.721484344457643,-15.382085432608811,-7.0633401523836445,1.9493343225325124,9.390606166642629,11.62677233477429,4.24339292859153,-9.77815109642136,-18.154739861254477,-12.793632287680078,-1.6686438086578061,1.3364921097285845,-3.4135073378620358,-1.7804019062730116,12.190102451126803
226,24.627365159855792,-0.5937791219325355,-15.981429462891601,-18.574884345198395,-13.126817745120212,-6.001689731938504,1.0414590698111694,8.405804548492888,11.787537425350848,4.570516313670353,-10.611731880287616,-19.917542419364352,-14.225545747033427,-2.0539614371478527,1.7377691346718165,-2.8616477779678764,-1.6940807646970966,11.26645776740867
227,26.70349835084849,2.6244919504609534,-15.222369112842015,-22.510197286507534,-19.266947342041824,-9.924815273798846,0.7328698064305168,9.34485844096583,11.430892238144267,2.8385663762547693,-12.462298253681547,-21.503405650715866,-16.05780464484604,-4.079609752982209,0.3414207264096854,-3.4331366794125144,-2.619735844661718,8.624628207459626
228,28.280211080348984,0.07553649374357745,-17.505222714273344,-21.62711069396764,-16.995927476052636,-9.269768468867461,-0.07151852826927292,9.497637109618681,13.192840603528465,4.199971637980643,-13.122054255154378,-23.274053525090935,-16.98723979137307,-3.6038248885954487,1.2440888021956735,-3.102489956204802,-3.1146699362073287,7.296572524474152
229,27.913599499872998,-4.336387618284258,-20.461720178529987,-19.51360092585362,-12.45911305436763,-7.038767987183444,-0.9380270527464054,8.401285004856959,13.65545404994324,5.107761310179517,-13.138580986192869,-23.74274045121756,-16.89970028489341,-3.265193931936652,0.8096322285716316,-4.2972709669427545,-3.8181612197237915,8.167584280258279
230,26.75779527858031,-5.382710764633052,-20.583110200351253,-18.309147995582894,-10.625238613725614,-5.6572093441674545,-0.42032035225908826,8.46457528162047,13.883067954118003,5.7926558026452994,-12.186005133766097,-23.040705041055165,-16.777342345648037,-3.3066240382693937,1.4964686046326063,-2.6863067902218853,-2.4157044100640497,7.966195251770181
231,22.276301982866084,-5.673041083883572,-18.89342793850743,-16.743527975580648,-9.703566014847125,-4.900966982758456,0.39752839337537754,9.06940434610751,14.043461012484272,5.575318119575455,-12.59559275434009,-23.393707012587125,-16.696343334672886,-2.528426663324109,2.7508259311041123,-1.5401155752947144,-1.7758187243634216,8.115313169831664
232,23.501424338345565,-7.760139780320253,-20.316521799350372,-14.834518055625145,-6.228235123899328,-3.0739924736075475,0.2045395731576996,9.047660913138188,15.401084231331877,7.216245743150346,-11.87120183216722,-23.059495348992524,-15.610988852683006,-0.8473321216026554,3.7863910728526253,-1.7067816010168873,-2.3385455555727357,8.130220414225832
233,20.195825164857602,-8.733846485697997,-19.34951035636945,-12.641646307914915,-3.8778664689910065,-1.6089129008425371,0.3542044651462876,8.278871519240163,14.570357699752202,7.039457341057999,-11.196518930646974,-21.831975524235656,-14.314396034868594,0.19474409667480627,4.566895885585675,-0.9354337341631284,-1.1985383433469725,9.984382459260196
234,19.91473824434655,-5.6682008034119296,-16.40086152527624,-12.58897859066728,-6.149232170689785,-3.818419709573505,-0.4812467611055939,8.431555272526886,14.932123050635763,7.295911214130881,-11.02635603605559,-21.582708852013408,-13.856312126005259,0.4531550213132142,3.716094593793381,-3.0446323759200795,-3.0062704245011735,10.481970732948163
235,20.004307218770006,-5.256029781268301,-16.274479936345195,-12.822538430277662,-6.074427226242767,-3.090691693933717,0.35224891597497504,8.747708323438276,14.834585522794509,7.216851201021792,-11.006382290790665,-21.52756408537646,-13.520768347484847,1.2704489727816843,4.654047363070756,-2.432125811062063,-2.4165450386499874,11.7799231307303
236,15.62267636215405,-4.608443996054405,-13.424726114006248,-10.615709851434326,-5.315335568460238,-2.954871585272237,0.6735910421928676,9.244788479817142,15.108407701670204,7.106789279215371,-11.30523877711082,-21.693660154169596,-13.36180230254734,1.654314038701449,4.959664154685694,-2.2913464826981773,-1.9731363156257773,13.229101595312986
237,13.193887402168142,-9.854233488447075,-16.014186261475313,-7.276134131308585,0.2927672510450629,-0.9313183298419542,-1.6921687626698352,6.684490400137588,15.273292573622602,8.331068500793858,-11.854869194054922,-23.77836912787866,-14.562078729362574,2.079215117278459,5.204064125177525,-3.5974882494058824,-3.6777932193260643,13.018133763755506
238,14.929062173642595,-9.710363654288251,-17.10410959604515,-9.184451735909317,-1.8402805353832774,-2.5166252336439268,-2.303288418777246,6.664875792900702,15.050784059101488,7.557061657101881,-12.920682472077017,-24.90376384910563,-15.851921879663058,0.6592729826146747,4.067925956433009,-4.37985628915321,-5.0375526888790425,9.859827240273965
239,14.38531049685716,-10.351356544914651,-17.838663296919638,-9.951612916584681,-2.374040210171933,-2.5205149927825556,-1.855365616531851,7.113556148913613,15.252047944496978,7.782651393511273,-12.450884378167743,-24.663309948501947,-16.50936160300439,-0.6202596848824609,3.339246315612943,-4.0584870075155175,-4.838239758801192,8.318148790245877
240,15.32298607324542,-9.36888787623352,-17.12361874777933,-9.891667501139793,-2.978480263735678,-3.2306818969208013,-1.9674103494353234,7.77952422094469,16.20958981961227,8.440199757424866,-12.218797687380542,-24.57167710515665,-16.322676635472003,-0.374210082515984,3.505737184679596,-4.033765204074887,-4.97051407749025,7.99503769642326
241,14.614295029842301,-11.08255416259419,-19.13594334206641,-11.286275403076234,-3.4635344529341303,-3.5064354725031808,-3.0498954397124582,5.65572000955745,13.82714073812201,6.700974262460973,-13.188576138728441,-25.314388205194625,-17.317592735542846,-1.6607737900224073,2.1493898614051865,-5.19029963881317,-5.633034964676738,8.064880385046463
242,14.821169941908519,-11.708974382788892,-20.152766128081463,-12.160255388873079,-3.9190743590633654,-3.725668353953376,-3.547235194422637,4.5044338136606985,12.22047220124538,5.290275271166191,-13.952709889379383,-25.636747927739304,-17.73471109085929,-2.351465172607569,1.4764378591989191,-5.72169123337489,-6.5383932108746,6.081934653005492
243,16.903228437162866,-18.519182176665364,-26.569782459852554,-11.442346789575165,0.8611628704362869,-1.7836100119631069,-5.769057597413935,2.438892416922618,12.982001491762833,6.59733197767202,-15.117298458345175,-28.697837714310293,-19.921754766551345,-2.588025395545125,1.8400904658979689,-6.208184755563204,-8.042596396000613,3.7511934254071497
244,16.34720406616587,-19.254933403703127,-26.272011922794583,-9.694859980958684,2.7735401899255114,-1.1124085036801041,-6.096903478726615,2.525988464923396,14.18523634770332,8.179818689452237,-14.237257528721578,-28.706490184317744,-20.102369582827155,-2.1684992676714345,3.0018403678281973,-4.935747623714238,-7.765787582671932,2.091830479946018
245,19.288773748149648,-16.406096097502967,-25.47001864085846,-11.875846443607648,-0.5321782904696778,-2.8931345441446714,-5.7894486213436,3.4525460660675913,14.573840542511888,8.329517267636623,-13.696034023990507,-27.98273332622205,-19.81583383907277,-2.3721750091421674,2.784965158916564,-4.964973485762951,-8.006275893182483,1.1466665898191055
246,18.894221091970326,-16.017830107281657,-25.140692463755947,-11.921323205295607,-0.38489893053907903,-2.3096022792637774,-5.5437243206754925,2.6408402064982144,13.242639723725777,7.718812928146977,-13.16776031828162,-27.077588965974574,-19.381906792739535,-2.440502771503978,2.7441972899028784,-4.5445300787239935,-6.936081769631553,3.0017879930566096
247,17.632923107219785,-13.812622460293031,-23.099540964860292,-12.437655693290449,-1.9379622858354149,-2.3343120218945645,-4.184903145432853,3.1688632729101696,12.111501517657356,6.521642646348382,-12.826494067742734,-25.577485405667808,-18.134199193435983,-1.9141389491171084,3.2471844199183786,-3.469193395218399,-5.446489824114627,4.612482852745705
248,19.0348047964907,-18.866761603046125,-27.80367909761857,-11.504987878059545,2.78471374803425,0.9101615152828918,-4.31967177303889,1.9769914865865976,11.935367647059971,6.7542919887047,-13.24815680924097,-25.91109840485775,-17.105322288868287,-0.0013041688375977434,4.3278667905686685,-3.638509280542887,-5.154070284861308,7.20258425353427
249,20.31183977970092,-21.35296253082076,-30.217676890027896,-10.960915690970907,5.129158492486458,2.262756761959663,-4.57663323763152,1.583141143650063,12.079492090193,6.4755433476743764,-14.421559493245704,-26.712029144267078,-16.314132063662274,1.5049867932800485,4.547390879309555,-4.9657778651775315,-5.6715989960972095,10.048973444831146
250,21.640208058931226,-21.242842899932533,-30.12497712278703,-10.136938054988136,5.918775135918389,1.8920131216416318,-5.819256423743655,0.9791569924161015,12.856132874648933,7.619158116831884,-14.238097243798402,-27.33895656358091,-16.572065646246923,1.8908211495866998,4.537629433276961,-5.877690755726654,-6.12795471484943,11.89488786122209
251,23.0464367616087,-20.228662352042473,-29.41356269845558,-10.111974326981766,4.632670410326384,-0.46533491940349436,-7.819056899636443,0.6375334914606918,13.90593092800415,8.554238576012423,-14.488129766125699,-28.505784141829324,-17.827554054966324,0.7879364027050717,3.237300873685844,-7.430462186786488,-7.290855874028075,11.83436255915885
252,19.569261563792505,-22.893825428382616,-29.58649690586812,-7.361275063163654,7.9884645924724555,0.7634377815340937,-8.845748015692951,-0.4399485480352367,14.416001376092716,10.046062375627653,-13.655225610574055,-28.978809589427097,-18.825074161217636,0.36174551956327944,3.6863389249164356,-6.802542138108221,-7.6933515648922635,9.409778760804171
253,18.513746184933364,-23.559719716030983,-29.382408529843367,-6.5025531100163425,8.473102030897975,0.3914012972510102,-9.27922244767985,0.016804493700812925,15.531503255817391,10.742510449079894,-13.946777698072937,-29.844992757668326,-19.556607511362277,0.1379473544175337,3.936921561727147,-6.554856030757337,-8.424857935679036,6.73531840095304
254,18.734363507371917,-19.836755827089267,-26.676554677424534,-8.05582555509895,4.672131739818554,-1.4319107301177527,-8.13639471092129,1.3730922040620417,14.969784183387807,9.425319634857424,-13.886639731491693,-28.579249617541723,-18.990538872807786,-0.5503181547148203,3.497268213515046,-5.850538930866463,-8.176327771694003,4.28342507624602
255,18.110306578339078,-19.407172456283824,-25.913482835745228,-7.4843768079191655,5.147495574764236,-0.9021520136182769,-7.887783218399667,0.9086024408281064,14.003877342726646,8.779841692437994,-13.59361974336132,-27.510806578847966,-17.845289202313847,0.06571990778316061,3.4247779916195005,-6.367097043481703,-8.70946255295821,4.07938632293161
256,17.759791996150398,-21.172624447716075,-27.242875084453477,-7.057222452094593,6.504667296473816,-0.43022942634960254,-8.906264785963446,-0.5687787792079059,13.233486632123382,8.774489328742474,-13.55511596937636,-27.930724834835996,-18.66689436243278,-0.8890772082539941,2.540010060932636,-6.993162999901935,-8.85280408534511,4.557567427729226
257,12.70809026441601,-24.830696458239082,-28.050179639624417,-4.613000974630059,9.977774800814023,1.1767968549366363,-9.866897094840624,-2.4787150302933583,12.048178975677573,8.584192214166206,-13.243084278800568,-27.35267875404129,-17.9217507218588,-0.47735769576699244,2.0182088799238396,-8.29485038336537,-9.887496147214796,4.795532335965926
258,13.563976011260173,-24.20141687099294,-27.44860953481537,-4.056862742776807,10.133001545033302,0.7487914410574764,-10.514239841199577,-2.8612765368136297,11.882946428529618,8.207141684752541,-13.828157247352191,-27.486823224528944,-17.195173478271936,0.4166470468815674,1.8574788802307012,-9.733512703632288,-11.291756784751852,4.9419301553962205
259,11.496328241566305,-24.314684379352922,-26.844730545634164,-4.035681755646154,9.24303043975945,-0.47646780767223623,-11.52631495825875,-3.7472048422303876,10.798036341351564,7.069727158634028,-14.468939684362509,-27.45118313286253,-17.019559339188046,0.0702365047867263,0.904854305675941,-10.86226225408676,-12.187457178523534,4.4501701237639075
260,12.850954589881466,-26.925872880838448,-29.276316655384143,-3.4763247547380636,11.069750126741061,-0.4488125836089289,-13.27586696747395,-4.757593867189324,11.514901847293729,7.724930247249482,-15.530221914588537,-29.407356863387974,-18.05151368040987,0.09929856153108832,0.5268419757468832,-12.30885929775083,-13.42799878584678,5.000969726759639
261,14.786303601650403,-29.596376563574054,-32.39922069677262,-3.7417865828511974,12.593892821066433,-0.24763558786237458,-15.012858437515241,-6.057834751774894,12.267798200162785,9.041940544620633,-15.998246949153135,-31.568233818643083,-19.767409173203248,-0.17008646025679464,0.48464242088067494,-13.082345303917757,-13.559851931029185,7.600308064746566
262,13.978946091393437,-25.3341277468268,-28.940809348827102,-5.21913013075086,8.457721630454946,-2.211232476274914,-13.588528377564055,-3.9690427585482135,12.859130524424161,8.857956058105614,-15.523806482735935,-30.665870886604694,-19.576031005791716,-0.7768582188079953,0.16324630499556544,-12.204408199536296,-11.298077074022615,11.302086531105605
263,13.11076213523613,-23.757803599277043,-26.9416028484456,-4.740450532641145,7.3212673633071255,-3.5735142235458515,-13.968998683119999,-3.2980286860449266,13.886650288048203,9.51480530414296,-15.686597169969444,-31.70493101809982,-20.967768410020167,-1.5546555151370334,0.6428197043512505,-10.913413865406756,-10.548484606984577,10.374101898577416
264,12.7420730879688,-25.72436866023769,-27.917206041440807,-3.1582102677395394,9.912832479573883,-2.5337882656357795,-14.923129754254235,-4.48702963993066,13.965849285284468,10.634035295452826,-14.620221287091335,-31.26739223523698,-20.999479514908327,-1.7099400406458178,0.5475761229587384,-11.010897032550288,-11.012744378339736,9.056138270763475
265,14.542787384995032,-26.048667178879484,-28.802510230503408,-3.4080402041991316,10.159441048510859,-2.4908598978647225,-15.325146578172129,-5.06097561646257,13.619595366770609,10.86822821576502,-13.768061300998125,-30.439605946269577,-21.090803147518944,-2.691192666895894,-0.17039172093626967,-10.769613127427775,-10.901113685905683,7.284824598310558
266,14.38509917506108,-28.882209837671102,-31.024868400256768,-2.6166780548180473,12.672910179432623,-1.2358738881553697,-16.266322770121622,-6.49324025007339,13.416034972949127,11.717802450257254,-13.022037725001509,-30.201144958342,-20.930647714856082,-2.4627505783137296,-0.32570384463184987,-11.533508447949163,-11.781090857379086,6.851757091346347
267,13.804724507076523,-27.765000692949332,-29.559499624372712,-1.7322985659965382,13.27979967063844,-0.41198719637863884,-15.48951639425295,-6.1833653957665415,13.601363553196187,12.490855973198935,-11.623501413455354,-28.841411631467462,-20.044260517808645,-1.8271064730077564,0.42698988344787736,-10.60384370759285,-10.738095972737185,8.074062254010688
268,13.261565688812885,-24.254372282422374,-26.41697462937469,-2.27404707476586,10.647688834688893,-1.2463728241147536,-13.332386346899826,-3.361872064994945,14.783251271200387,12.321783773826377,-11.597486849810915,-28.24160129041729,-19.61481422719139,-1.6593186316131168,1.250094417593058,-8.804706074760027,-9.177769347449432,7.976056300744447
269,15.451259277615808,-26.321724610952895,-29.261945632563815,-3.3181909283037276,10.63961921414154,-1.9706390727896705,-14.454250103354,-3.2263092911529037,16.245294064482742,13.1171701541036,-12.966398962885739,-30.98776169186874,-21.908852048647294,-2.794860270403655,0.5981609669187994,-9.660761904887055,-10.15407472170392,7.17443026108348
270,15.131382756277361,-27.84734870833338,-30.550132886342535,-3.5453641804887974,10.60535544649757,-2.94052016815748,-16.033668547762268,-4.145606886902906,16.296390817352734,12.983369545769474,-14.336562999296131,-33.13179022194616,-23.468626299141093,-3.1983935225785034,0.6020471188566205,-10.286133050081013,-11.753401632842454,4.712155464416819
271,16.77953794741625,-22.74308466655336,-28.21283349392181,-7.878146306065122,3.282354750738931,-6.8792836594056785,-15.17365687723029,-2.3794720111033683,15.662996088470145,10.62893744162669,-16.17056336130962,-33.90038959974465,-24.061982279820732,-3.959679248227011,0.11314427736778367,-10.565966501649426,-12.783136511468923,2.1081372098476256
272,17.286813087250742,-23.125758961247577,-29.134313322540276,-8.794328596871596,2.70066160277058,-7.204355309502375,-15.499835819342678,-2.8323737076011577,15.103652029215638,9.996743457149162,-16.75796105983915,-34.1418381367962,-23.77994379189706,-3.542776050963872,-0.015581859591807974,-11.207936963896826,-12.746261032964501,4.158974525977621
273,15.669916277986092,-25.922106061566186,-30.313819967705864,-6.25789221493318,7.572482430275421,-3.3901624156047303,-14.535678184779998,-3.647398997596426,14.434432418392905,10.157279375102481,-16.089192840838653,-33.00386215527034,-21.90180265344368,-1.32642771121165,1.511296056711522,-10.595376270915644,-11.709586612584232,7.222421641298634
274,18.75255483865774,-28.85629027642705,-34.24933605249067,-6.806080338227968,10.010941698401533,-1.2796196184758677,-14.496221075218184,-4.620013740811924,13.859835831305967,9.911125994221564,-16.572379786933634,-33.37092308846229,-21.49631021743262,-0.6010452318003616,1.3601670150966356,-11.692021594662023,-12.0469530389527,9.409342118571061
275,19.595475403624114,-26.734246406320015,-33.63789404214652,-9.244648143672922,6.508491611577724,-3.0191305555246473,-14.453494729869195,-5.144559828554292,11.563367933941345,7.326197584191772,-17.463791525771327,-32.63762769733071,-20.91933024404703,-1.4350181844624492,-0.5149308070879384,-13.505984225649438,-13.120533060433145,9.270044514910714
276,16.669047580214347,-25.45886537124906,-31.88868890673793,-9.87692349449232,4.455034553203128,-3.9753520249905003,-13.996107280561745,-5.246152420110228,9.713400494088678,4.89260349837583,-18.7365353843978,-32.58342042016514,-20.617479345240085,-1.4563116900399677,-0.4982492827736482,-13.373956821970468,-13.813182778604785,6.712457755114508
277,14.596281828234346,-24.859920892718524,-30.53290107631357,-9.457984115774387,4.091261905574268,-4.003884630105225,-13.644188359461728,-5.768569572925015,7.771126550735951,3.022789108414537,-18.55641172170483,-30.43871986930683,-18.687008310470592,-1.4308005414004283,-1.9028625350365775,-14.82268411901746,-14.961515853250095,5.336207438638767
278,16.414384113806793,-23.623503656129806,-30.907287090904337,-11.712055816484389,1.434954154037549,-5.428182837646133,-14.031835958750595,-6.65733166433538,5.79932946035105,1.2106637857864313,-18.875666799895416,-29.703258084868416,-18.557507153673207,-2.707453409580764,-3.7659557637123333,-16.206006392208955,-15.923060352997226,4.098650562197994
279,14.712348746633365,-23.55161394816814,-30.221481959299513,-11.268585195396525,1.7869426765052046,-4.93925291150181,-13.936779664623247,-7.536348152468587,4.439453105525428,0.584916937647728,-18.31781067129861,-28.821543539338837,-18.37278222863888,-3.160768242964392,-4.000170011306187,-15.854193661455978,-15.644202918547945,3.463169883306505
280,15.935942830130882,-24.76644512294744,-31.42433359883124,-10.64474104277783,3.4347847040410255,-4.240440335851194,-14.697518800565957,-8.445682165090162,4.551012302649185,1.3570150262031109,-17.981598879654413,-29.25651532752837,-18.962016628293927,-3.3225153513819623,-3.8239032624005045,-15.790475256071453,-16.021422120498162,2.472255044864843
281,16.246524618157853,-27.71628672436065,-33.13733795595121,-8.519988230251073,6.714477399941498,-3.732127409428588,-16.861981706780504,-9.838666205104275,5.878668158176115,3.7726065169660585,-17.05788561423269,-30.333465179034487,-20.564189097526555,-3.938627359410642,-3.118218283887708,-14.628208071851567,-16.024192721921104,-0.21504772934941657
282,15.257246521300306,-21.69100197303782,-28.222265330049222,-10.721771164387949,0.3792827946165257,-7.232543442227489,-15.501295649243433,-7.479161349714443,5.98252769991351,2.7582114606411605,-16.901040924950557,-29.5457094259423,-21.19796562583296,-5.775729169418364,-3.697650284431251,-13.108643707477016,-15.063941769951574,-2.96398425544021
283,15.315319498672736,-25.55905436348805,-30.943007176693836,-8.914373054066353,4.297837738369108,-5.595824783124053,-16.732331336818714,-8.499999735098068,7.036353046518507,4.270460926602405,-17.151290059467456,-31.238621765311635,-22.352897590388938,-5.6651522168858985,-3.473120786806224,-13.80286429716131,-16.248508914901343,-3.7756963573615683
284,14.666244252858053,-25.706917358400727,-29.861292657407272,-6.873031478236472,5.475462939270996,-6.402729277056641,-17.998062422363393,-7.696120927177563,10.00754609344523,6.629335012803313,-17.58360167212851,-33.234640322618034,-23.022717319347624,-4.368067663411083,-2.465729165490719,-14.792908320175101,-17.836407292507392,-3.461003498514898
285,12.522057094496622,-25.004648432171226,-29.028258063829778,-8.070586979362837,2.7717367335785457,-8.593737425408003,-18.606374778436546,-7.333387139939969,10.141209304127992,5.8492418420630266,-19.199980953866394,-35.07066407308114,-24.39306478439496,-5.166767984559489,-3.2866277675895157,-16.050426670209816,-18.928765956515168,-3.346352471103003
286,12.593774166342666,-29.87185390214701,-32.7873184943048,-6.419596473963394,7.390015449048304,-6.240766203967659,-19.89797078009346,-9.28469253823482,9.979768431975947,6.633658517344598,-19.281857280714892,-35.917114252936024,-24.62855636197575,-4.481151662715542,-2.7284041663219845,-16.28505142890283,-19.345922737765832,-3.133492229867374
287,15.046315448767922,-27.843958798505515,-32.32486580966759,-7.70699116342619,6.0043121384808105,-6.190409022448309,-18.905608865621996,-8.929038842934668,9.354495374148108,6.264983165247918,-18.455333482376638,-34.525826098527304,-23.932288065652607,-4.795172570305793,-3.2758849875126166,-16.280480787226548,-18.682303133246826,-2.0136766973981017
288,16.59946083364329,-25.066481175218726,-31.376224422152735,-10.452676313031871,1.5004786315457241,-9.236092847635794,-19.842198009263225,-9.630721037730435,7.722849416941206,4.786223081456167,-18.42354155093385,-33.567455280880665,-23.9246409934317,-6.6035847103610905,-5.954339444599524,-18.406288932458835,-19.673908881265955,-1.9249616825500486
289,14.79365762279117,-25.210331960277074,-30.926102239009616,-10.084774482593218,2.0967865807832404,-8.311769532654967,-19.59149024881663,-10.990102867658663,5.545458375978925,3.806220490737336,-17.305762585992966,-31.64581854608972,-23.009619460603517,-6.833444634333317,-5.9861719255398,-17.60031338759053,-19.240828986140208,-3.4980727334072528
290,15.652191886490407,-29.28277148470623,-34.34351593368689,-9.10961831057815,5.096585801456544,-7.530177661965402,-21.287774726862093,-12.082288677090725,6.4185392648196595,4.635645401416406,-18.44368401091816,-33.80325843704792,-24.0784420911706,-6.633857361532552,-6.274827365482954,-19.57120976970766,-22.340641839470816,-6.830633660872233
291,13.990202719194402,-29.889949546778837,-33.37730576080424,-7.101326919170669,6.315609961030397,-8.260549866393687,-23.004704910642175,-12.922983818957215,6.987653070892644,5.491917539534217,-18.45092364291149,-34.64376245034679,-24.9890256364857,-7.1496148531292985,-6.575933848078781,-20.22592137827925,-24.03023326756527,-10.10447389683863
292,13.99484730802618,-30.035701284440663,-32.86299737589861,-5.902607349781646,7.140606825410291,-8.459157873364267,-23.576695474758758,-12.92064817224033,7.6291315212997475,6.241714592658156,-17.882007605159558,-34.322286452832145,-25.089804584397555,-7.6016132506081915,-6.791366623054581,-19.969969991061767,-24.32936970371948,-12.412029426546892
293,15.766387925972978,-29.418585120648267,-32.19574786333665,-4.687671972459016,7.921542465121577,-9.04169900177244,-24.853334802211428,-13.326558805061003,8.637910281429065,7.701312978839877,-17.053347295867074,-34.12346381483697,-24.867126746999073,-7.159249045044105,-6.584352437881665,-20.371646027692968,-25.1975219302664,-13.484932019730786
294,12.890140041141255,-30.751873341000906,-31.354427125314803,-1.849396956765447,11.039614383332705,-7.563434048657325,-25.379218662916724,-14.588314448306994,8.152871750746662,8.594932620181542,-15.210131028956335,-32.29186974183436,-23.864195459445284,-7.057977897875734,-6.695993525377168,-19.99370521805875,-24.288162896856377,-12.387078766462102
295,10.61851085804115,-25.262797032455214,-26.011372824762084,-2.717985091972355,6.196486261672881,-10.4196887479651,-24.64582627943774,-13.608877742696867,7.1789918517833105,7.6539067798101525,-13.743797362269483,-29.703325373455762,-23.27894326470507,-8.874426660909428,-8.134214484545895,-19.140243598185844,-22.576977226864248,-12.156313470416467
296,9.857336170712623,-25.85749691596342,-25.98438362239953,-2.026702741895351,6.754238135163457,-10.793792558864256,-25.735634074783075,-14.387541513119741,7.403043227846921,8.602247110515043,-12.834098154643918,-29.302078965735216,-23.394955853733563,-9.368290040601591,-8.87375496596483,-19.86183735287248,-22.841447555312676,-11.606437770128505
297,5.963201803739129,-26.83400628070047,-25.436735160581765,-1.2317078988443326,7.46820654915657,-10.140142290261657,-25.550477018824992,-15.185163149570334,5.87079169957364,7.348223824654088,-13.033176207521016,-28.64301337921542,-22.68408971744713,-9.166633270027367,-9.18000624323161,-20.44515540153857,-23.57237570349248,-12.438763049646454
298,3.8154307868530974,-25.738519968063812,-23.268408129106536,0.04322120314482107,7.620583750224312,-10.31485381075635,-25.592323322905,-15.15876346583698,5.956733322576809,7.642261910333651,-12.538936515349672,-28.06811817771407,-22.015373299142453,-8.440108642307418,-8.771057000479338,-20.73853896537814,-24.395663309034504,-13.274024771846864
299,4.380114267785164,-25.37733248802139,-23.233654698209016,-0.28732632250754614,7.110910967149328,-10.624914566478429,-25.309472886766542,-14.198107349118281,7.075681751319637,8.009303586146952,-13.370793273934508,-29.44586880319149,-22.74668033128764,-8.092841020673593,-8.093444667921112,-20.639967262448334,-24.917886534027335,-13.936751895020928
300,6.027030940685122,-26.2718950998635,-25.489729740366734,-2.5287908899074787,5.567922306186332,-11.392090902442309,-25.232993971115583,-13.262071219814862,8.122541849776217,7.6975719006578105,-15.74158896525049,-32.585836696350974,-24.4843973693246,-7.852689162031626,-7.496385625193706,-21.303167424377968,-26.519632427805387,-15.239453973017115
301,7.496601353683717,-29.346020387906098,-28.89388445885467,-3.045376714963193,6.784970066559873,-11.252984172754454,-26.327307849359368,-13.420631265937386,9.454071921240867,8.201865049272042,-17.863397832979476,-35.72625957473297,-25.684103301972048,-6.911584966686027,-7.180555541059414,-23.317630180034563,-29.010483530776554,-15.370259232114813
302,7.603912975830594,-28.707306239294486,-28.905663222588647,-4.292477167829993,5.2976955531019385,-11.522684022381219,-25.23384664977202,-12.342093155786971,9.146994400000459,6.539427563710037,-19.677008164515673,-36.639948243339795,-25.665360948467267,-6.621109050908708,-7.0447213114138485,-22.93675952666007,-27.30997506938575,-11.334907827301862
303,7.002578621781567,-29.477231373512023,-29.334436874063144,-3.8420628722063963,6.528889933386273,-10.28350255287363,-24.73224327795971,-12.631175163760517,8.637148913577406,6.411482685760641,-19.197364355398545,-35.69152123971022,-24.61085222114204,-5.916661132068806,-6.916911219030302,-22.928070017346815,-26.26524784639762,-8.171097673183251
304,7.865788147885951,-27.991194366804166,-27.794444881154295,-2.790585259737788,7.103813789941807,-9.71649547366373,-23.80201932031377,-11.415554642960096,9.841708123610024,7.514391034347211,-18.090115175379815,-34.65120480691445,-23.930761155855723,-5.6275205800649335,-6.476672110266074,-21.59965649419629,-23.640678958006113,-4.133057717666529
305,8.540723026222128,-28.166320790371877,-27.687517176383892,-1.715441718047513,8.705911250827079,-8.303428724746434,-22.660694125118898,-10.186675933650639,11.347149017954038,9.183058287118696,-16.581040334422426,-33.82118898063591,-24.060041183968604,-5.991346451597799,-5.631716587149682,-19.121500357264893,-21.163257369149903,-3.7641157607367446
306,7.264195617457867,-21.529620485421123,-21.786046311511324,-3.003543027023095,3.23355432904453,-10.840021607258784,-20.4527975366055,-7.509953112143986,11.31245927952606,8.298488145698162,-15.430461283790864,-31.478339604966607,-23.445141853464683,-7.257176905433005,-5.824910728503757,-16.83366391785894,-19.16716928462487,-5.657159389413288
307,7.941391990737873,-21.817683659549026,-22.09856743699341,-2.865119028769103,3.418295339271652,-11.019328351695037,-20.89527835583623,-8.069267271275411,10.616480023396809,7.793854677943993,-15.109095064555875,-30.40442017674102,-22.703066001836646,-7.632911517951161,-6.782058553024162,-17.54812543798343,-20.07694129699127,-7.957168209151297
308,6.51345383866461,-28.10599210392233,-25.917172842381934,0.7876280548106224,10.959153301502962,-6.739108262403708,-21.980301717744204,-10.601105939219277,10.388985562694522,9.421213169475385,-13.946426908367467,-30.210226396533393,-22.27319502399219,-6.459383810466961,-5.661975338108697,-17.073908802891143,-19.778132941369226,-7.21595055816971
309,5.881868940851229,-24.66224956618323,-22.528324675265324,1.1000831558015893,9.595432027039445,-6.712613529580496,-20.204377796033736,-9.318559196362616,10.072877226892853,9.136451103791433,-12.404250537805783,-27.49640647646707,-20.422323409201468,-6.001263943485776,-5.153559844753332,-15.439357540142156,-17.86185222114152,-6.408339619465184
310,8.408399314216869,-25.837327088090635,-25.118817267908128,-0.35598365548073696,10.045600359801542,-5.501064621431733,-19.691345501955436,-9.84846776500009,9.17457799796449,8.557076369543372,-12.463140222368922,-27.050148060573317,-19.530806197990554,-4.99944861108774,-4.552830501779971,-15.208080210798954,-17.07108510609442,-4.04999463690184
311,11.848431473707818,-22.58432582390231,-25.260427522919123,-4.98457066056004,4.614015338502248,-7.4601108152929285,-18.355280345710618,-8.85613243561738,7.749631254701323,6.2015121453043225,-13.543832095025728,-26.799382996085495,-19.350599730112524,-5.487290780527364,-5.0301108240790775,-14.997145189179594,-16.258363732337376,-2.9403684303509885
312,14.764421266799072,-22.610081991942522,-27.173276313541358,-7.474759357316967,2.3939572114296843,-9.091206362215171,-19.25900091621608,-9.032466528410886,7.801956952460135,5.541534112023465,-15.393569959470883,-29.114464984050848,-20.873690893939862,-5.8996895641314335,-5.254408192341947,-15.831314601011488,-17.268082854164746,-3.2081145354499587
313,11.558159708809763,-27.075076313802004,-29.24876855164446,-5.021205943331096,6.663005241343484,-7.335282381888674,-20.77871206747155,-10.89593738530312,7.741657429803235,6.1207980068235175,-16.192205355066914,-30.939334308167172,-21.70793036455701,-5.212730013176744,-4.723831523828974,-16.688696666924848,-18.344880783907847,-2.5822963673620083
314,10.588340471065923,-27.45990411148372,-29.0550080533353,-4.479378554388677,7.027401902846789,-7.514153103823725,-21.270988859133837,-11.135378414622219,7.953049544120561,6.384794437303264,-16.314988715789966,-31.368425995349384,-22.052082192422798,-5.40517384596,-5.102551524264483,-17.346279215749178,-18.697074594436486,-1.8892967481051515
315,10.289031409464657,-25.587828027660972,-26.923138362280472,-3.9476201540192197,5.926943615594821,-8.562453803120968,-20.633222396013313,-8.822694598068884,10.378605959456825,7.376864178834854,-16.856769509532313,-32.18800538819901,-21.96092100870409,-4.48341154846488,-4.385358848622788,-17.424925821311703,-18.949108611446814,-1.2951357531264716
316,11.326702600440825,-27.63494099685599,-28.859257272319624,-3.4141591163477925,7.978371981533176,-7.25339094597853,-20.544183215863253,-8.674902778919915,11.286924722749436,8.260956900090047,-16.844414060764446,-32.73214821753419,-22.211603821132144,-4.234906930806035,-4.094558491165526,-17.39474259376457,-19.01277821224286,-1.2519853013581224
317,8.279093129421353,-26.116389586721628,-25.80181833262123,-1.7207243743923553,7.913347835747473,-7.73626244683954,-20.548044423539555,-8.386042041193125,11.63007971617992,8.930786912167287,-15.794750785581854,-31.980079166441627,-22.315530683192925,-4.617289803280046,-3.59574201514174,-15.919022040042213,-18.035164421071094,-2.3109564849079396
318,7.880678569725344,-25.963829011508302,-25.00619994159957,-0.7019284563018927,8.345325117472996,-8.072685733195815,-20.81987594076664,-7.763165012327385,12.90330353934277,9.8736923395423,-15.724664912035792,-32.47564045282726,-22.854606344632966,-5.044858711718736,-4.0150063583349604,-16.375775969995853,-18.495313473402284,-2.7651336398615665
319,6.576230170491662,-26.971117121870563,-25.487987007985627,-0.8232442809572228,7.875600718169042,-9.308729580788894,-22.274270248872583,-8.488993714288,13.094802042354944,10.167587313549534,-16.211888729580423,-33.811127256362326,-24.443351130849816,-6.399869190467245,-5.127255223973548,-17.435347755657308,-19.548976967759742,-3.750723264597406
320,6.3050769172675505,-31.45855291919968,-28.636003828088032,1.0035842394826786,11.840557242632741,-8.137344786275698,-24.40192082630135,-10.300160662306235,13.699178129024986,11.323383986188437,-16.84523468702885,-35.57133155231685,-25.129101347962045,-5.817468652598323,-5.260829034904024,-19.274430299223688,-21.404428958650236,-3.427977884303579
321,5.600978726964131,-31.385579952500915,-27.875755230533237,2.1096775052575043,12.74666682226868,-7.835155356962466,-24.712060826934184,-10.909047700465196,13.230676052681352,11.408149609419029,-16.038164884500734,-34.34761655442281,-24.14267509376202,-5.529841672905259,-5.56637895975531,-19.748201149167325,-21.791644651035043,-3.729617223144464
322,3.5892939859015893,-27.2137673021295,-24.083770604114246,1.0065791747156319,9.294061494602305,-8.867519748965522,-23.107664707493182,-10.258851754675662,11.409081956580438,9.574996620104875,-15.494702608612775,-32.41593417791503,-23.298367466577908,-6.2109432705819785,-6.088896710856354,-19.03090187405329,-20.649020915128755,-3.3224903988784886
323,1.7788604321445072,-26.212433004401618,-21.968729165282635,2.7082538497248256,10.436523849117519,-7.795632743924076,-22.23885742390429,-10.1804677531096,10.868146506913208,9.598259079209663,-14.0280669619186,-30.079054560257514,-21.47487100068607,-5.485290930084133,-5.78147938905877,-18.325826049968917,-19.585171500482478,-2.3428201201955186
324,2.4844680006317756,-23.05256557042678,-19.409146943848917,2.4194073913482543,8.403541410406467,-9.034329829650245,-22.01444357465271,-9.880196936899125,10.393224755698121,9.355117045231662,-12.804959947158252,-27.85839766269557,-19.939239629496463,-5.534803570178219,-6.769599201007203,-19.16944694091669,-19.89831965778353,-2.234549321245376
325,0.8530511470055203,-24.37088785422822,-19.41011346546612,4.270135559976747,11.069639666109921,-7.352035318497469,-22.09130083200309,-10.828484295620704,9.977006402425953,9.937176798964236,-11.853268505900632,-27.25852002446313,-19.7175097572206,-5.227733410513556,-6.093268572123658,-18.29921233234403,-19.23072511045953,-2.0652108836643
326,1.4596844914792557,-25.94516013008068,-20.66906256466679,5.220723899823888,13.448003798328276,-5.749936510760348,-22.3038969003345,-11.954133274784992,9.425653678211924,10.590430961805078,-10.430975571089846,-25.941549634052596,-19.12403708070969,-5.3005806415435925,-6.228716305837356,-18.069475524094372,-18.96841776492557,-2.4735217505197005
327,3.3470024020187377,-23.940415472067773,-19.539160175535496,4.894083782508449,12.410784037078667,-6.235484059331036,-21.837939245186583,-11.177083956442743,9.852265635361098,10.734483090962508,-10.09197439086786,-25.244931286585178,-18.420159207433358,-5.055959552812415,-6.565595509227224,-18.61371903475307,-19.040031460715625,-1.503982161733111
328,2.315356291749391,-20.84074314492063,-16.52493144857018,4.725817542127224,10.556951597504034,-6.534504498123929,-20.22226294705749,-10.087225952004255,9.176593179914065,9.989153142603548,-9.067450414319577,-23.262613512370898,-17.575690683188892,-5.4547704983035,-6.162565454646826,-16.454621982101386,-17.128951637617874,-2.4582921180610797
329,4.190244047890017,-22.55053685797559,-18.960896408054158,3.8587112775652685,10.911495535955174,-6.335306285368394,-20.316337189358578,-9.780412346670529,9.600205842756308,9.346842162266686,-10.94175565840285,-24.877296646895125,-17.586841095532073,-4.397715289128331,-5.70916559024884,-17.273568109908485,-18.17609354256788,-2.4428669542400945
330,5.4143480751753925,-23.466282883257715,-19.852387397794203,4.639762417070528,12.721689516847297,-5.2628317894672785,-20.629602089109966,-10.55046917957771,9.456668986773858,9.918669376866125,-10.248528026112545,-24.468847981697785,-17.425159855276203,-4.306354956135171,-5.588074505481306,-17.07059749077037,-17.873507872113123,-2.097783771526892
331,4.437214354970297,-25.995633040988867,-21.33832911723677,5.819773936314565,14.925921543819767,-4.764935640956003,-22.128556395138943,-11.836987809175573,9.882896170321926,10.970894751474802,-10.438733090401593,-25.942943776704873,-18.605211576893204,-4.3358598490969396,-5.283974586388755,-17.37856954575819,-18.40542306113095,-1.8992855423772892
332,3.7938768803753367,-24.53990072854311,-20.21679776100052,5.054311164810816,13.409910283530479,-5.095548211105715,-21.112698272294562,-10.934079436377994,9.64610887345794,9.953356585225563,-11.328106769717877,-26.194031014921674,-18.227396786102567,-3.698290990611348,-4.944459812470129,-17.55760112082857,-18.504958250423176,-0.9958848078329124
333,1.8395106381281776,-22.17750687155907,-17.60091892737619,4.672610352722681,10.98395559182736,-6.502109495574887,-20.466859028490514,-9.892102993011042,9.633846565550023,9.487782225595039,-11.075990275819672,-25.505415489769618,-18.293565307774443,-4.618310568296817,-5.476270778154319,-16.992537759501523,-17.816995788684494,-1.5495358425367278
334,2.063433065916266,-24.16378311626208,-19.554847721782473,4.489457052452087,11.828302491030176,-6.504283507379414,-21.681926850561755,-10.893147093141422,9.839931960145554,10.054828402892262,-11.495247665657878,-26.826319437672186,-19.346479636924226,-5.094707546440086,-6.368840651019853,-18.776018270595987,-19.168245921877862,-0.7348909370278744
335,5.1157362336993035,-21.48917713200698,-19.658643271433345,0.7558168018140964,7.3023290260617575,-8.315111206612043,-20.467003735883626,-9.131060347431648,10.271484105150865,9.391910420157778,-12.403132788335524,-27.904284297608996,-20.71375419067532,-6.184859253076916,-6.48629919142182,-18.214991157823462,-19.205379970194237,-2.484448104575239
336,7.8258189492339705,-24.88413063178905,-24.1319363054758,-0.7078888564743075,8.054100359986167,-8.440635394828805,-22.188632642915337,-10.444166604198879,10.564832097374296,9.864492792296819,-13.630695081720381,-30.592506552889816,-23.084260790944125,-7.325366224775301,-7.07645222102632,-19.046470475386347,-20.046374215928545,-2.774976724685427
337,9.024187458906436,-28.606755884237966,-27.89233214060529,-0.5221790140119897,11.120762588764503,-6.46871066275078,-23.238028830679433,-12.84780936439888,9.254691151210002,10.060684617449123,-13.215386202440783,-30.894853609416877,-23.81795085268508,-7.764858379886713,-6.958429186955349,-18.668357013480822,-19.961436359781402,-3.519624456142177
338,13.186482328216957,-27.149634429880404,-29.240908729238935,-3.7152084903645717,8.28946671377279,-7.35626122144284,-22.71323468511683,-12.557171271408308,8.593159718933554,9.063725863229946,-13.870472114037833,-31.30116536750827,-24.331603902266597,-8.340280768261053,-7.315988010600963,-18.80191571144473,-20.202624320806084,-4.197199569624614
339,15.675259648341855,-25.5965169484285,-29.3177146842903,-5.665989005419169,5.690373420388644,-8.80350176399258,-22.515931268133233,-11.918513849887606,8.456791897156164,8.390570330344419,-14.09853698708573,-31.03493010047686,-24.511768496031927,-9.311094322089351,-8.201103918285423,-19.005679090283277,-20.777379882861744,-6.772399525265171
340,14.705918992138406,-28.254371020708042,-31.185401937390257,-5.051178895381311,7.628435513365769,-7.8169789560502405,-23.06205312768944,-12.739448010449753,8.332314358650182,8.507860133811471,-14.557877190399937,-31.96700009202841,-25.152555718772582,-9.31550970906824,-7.950316636225658,-19.021797572383754,-21.279186270951453,-7.818935290853734
341,14.91591039942433,-28.21636108055847,-31.362450509116503,-5.482841340459006,6.958164821131881,-8.528589325697768,-23.491753580883508,-12.808218987498424,8.179542871414847,7.687129936136064,-15.93231799781233,-32.89935548507176,-24.82688790487806,-8.280319763155658,-7.738220132393298,-20.383333615358197,-23.253303939276368,-8.999588923619669
342,13.23851661216694,-26.445825671654966,-29.579333439869036,-6.178063689606255,4.806993567903243,-9.670738797919192,-23.02584335273994,-12.25417735321324,7.515185195597516,6.167052253753749,-17.046943173980925,-32.86109048254223,-23.95851884524924,-7.657342984012782,-8.317438660924493,-21.879919987371697,-23.79969150026467,-6.530601111073739
343,13.85539670294701,-27.388870832237288,-30.305713262174372,-5.4266637139730065,6.162324097457356,-9.441045028053168,-24.25035489608242,-13.700706467352882,6.840169898964886,6.044545279935877,-17.067817456793616,-32.50573115702266,-23.015185256582516,-7.149866231834417,-9.69966828316595,-24.751829260476708,-25.26458828702648,-3.645149060831883
